TITLE:  An Experimental Investigation of the Flow through an Axial-Flow Pump
AUTHORS:  Zierke, Straka, and Taylor
JOURNAL PAPER FIGURE(S):  NA
PSU/ARL TR 93-12 FIGURE(S):  30b, 31   
*****************************************************************************
DATA TITLE:   Secondary Velocity Components and Pressure Distributions 49.7% 
	      IGV Chord Axially Downstream of the IGV Trailing Edge
MEASUREMENT TYPE:  rotating 5-hole probe rake survey
MEASUREMENT LOCATION:  49.7% IGV chord axially downstream of the IGV trailing 
		       edge
NOMINAL CONDITIONS:  
  vinf = 35.0 ft/sec
  pref = 43.2 psia
  rho  = 1.932 slugs/ft^3
  rotor rpm  = 260
  rotor tip speed, Utip = 47.6 ft/sec
  volumetric flow coefficient = 1.36
  IGV chord = 6.90 inches
  IGV span  = 10.50 inches
DATA COLUMNS:
  1 -- x location of measurement volume (inches), x = -r * sin(theta)
  2 -- y location of measurement volume (inches), y = r * cos(theta)
  3 -- secondary velocity component in the x direction,
       Vx = -(Vr * sin(theta) + Vt * cos(theta))
  4 -- secondary velocity component in the x direction,
       Vt = Vr * cos(theta) - Vt * sin(theta)
  5 -- static pressure coefficient, Cps = (psta - pref)/(0.5*rho*vinf^2)
  6 -- total pressure coefficient, Cpt = (ptot - pref)/(0.5*rho*vinf^2)
*****************************************************************************
-0.030800       20.495970       0.030840        -0.031410       -0.088596       0.780217        
-0.164080       20.495338       0.045200        -0.026200       -0.094773       0.758983        
-0.297400       20.493839       0.061420        -0.008270       -0.078996       0.798787        
-0.430700       20.491468       0.065730        0.008420        -0.065901       0.909097        
-0.563950       20.488239       0.064150        0.016910        -0.060075       0.981194        
-0.697210       20.484129       0.057990        0.021630        -0.059354       1.001946        
-0.830440       20.479170       0.049270        0.023760        -0.052677       1.003648        
-0.963630       20.473330       0.040980        0.024490        -0.052788       1.006552        
-1.096750       20.466629       0.034980        0.025450        -0.050975       1.009474        
-1.229860       20.459059       0.028540        0.025000        -0.046000       1.007773        
-1.362910       20.450628       0.024480        0.023520        -0.039803       1.004850        
-1.495920       20.441330       0.020850        0.021920        -0.040284       1.006312        
-1.628810       20.431170       0.017190        0.020770        -0.045019       1.002427        
-1.761680       20.420149       0.014390        0.019250        -0.043817       1.004980        
-1.894470       20.408249       0.012950        0.018320        -0.040044       1.002557        
-2.027150       20.395498       0.010440        0.018260        -0.041986       1.006922        
-2.159770       20.381889       0.008540        0.018040        -0.038953       1.001706        
-2.292310       20.367399       0.005970        0.015710        -0.040044       1.000966        
-2.424710       20.352070       0.004090        0.012110        -0.045630       1.003759        
-2.557040       20.335869       0.004950        0.011850        -0.047202       0.988593        
-2.689260       20.318800       0.001520        0.010530        -0.060315       1.001946        
-2.821380       20.300879       0.001190        0.009490        -0.064440       0.991866        
-2.953330       20.282099       -0.000740       0.006400        -0.067714       0.997933        
-3.085210       20.262459       0.000880        0.006750        -0.068935       0.974388        
-3.216950       20.241959       -0.000510       0.006340        -0.066512       0.969653        
-3.348510       20.220619       -0.003940       0.004150        -0.066012       0.984579        
-3.479980       20.198408       -0.001850       0.004190        -0.066863       0.967230        
-3.611280       20.175339       -0.004050       0.003280        -0.069304       0.946477        
-3.742450       20.151428       -0.005540       0.002370        -0.068805       0.944905        
-3.873410       20.126659       -0.007630       0.002540        -0.069545       0.943684        
-4.004250       20.101040       -0.008880       0.002550        -0.068935       0.927297        
-4.134920       20.074570       -0.009380       0.001380        -0.067603       0.957408        
-4.265380       20.047249       -0.010120       0.001360        -0.076573       0.938949        
-4.395690       20.019079       -0.009940       0.002770        -0.074761       0.918086        
-4.525810       19.990068       -0.011480       0.000410        -0.072578       0.952914        
-4.655750       19.960209       -0.014480       -0.000460       -0.072819       0.963234        
-4.785450       19.929508       -0.013970       -0.000120       -0.073910       0.966989        
-4.914990       19.897959       -0.016860       -0.003510       -0.078996       0.966619        
-5.044320       19.865568       -0.016280       -0.002550       -0.077313       0.942593        
-5.173400       19.832338       -0.018030       -0.003010       -0.079126       0.960201        
-5.302290       19.798269       -0.017620       -0.003440       -0.079496       0.954005        
-5.430970       19.763359       -0.015230       -0.001240       -0.081549       0.891618        
-5.559370       19.727629       -0.017200       -0.002420       -0.082159       0.908616        
-5.687580       19.691050       -0.013720       0.001700        -0.084952       0.857289        
-5.815550       19.653629       -0.019480       -0.000820       -0.084101       0.887012        
-5.943230       19.615398       -0.016750       0.000400        -0.085082       0.867592        
-6.070700       19.576319       -0.014800       0.001110        -0.084582       0.834835        
-6.197910       19.536419       -0.009760       0.002610        -0.083250       0.797566        
-6.324860       19.495689       -0.009040       -0.000050       -0.081549       0.808497        
-6.451510       19.454149       -0.011760       -0.004600       -0.077313       0.891026        
-6.577920       19.411770       -0.012890       -0.006540       -0.081919       0.883258        
-6.704050       19.368568       -0.014080       -0.006420       -0.071838       0.934954        
-6.829860       19.324570       -0.014720       -0.005800       -0.071598       0.953875        
-6.955420       19.279730       -0.012710       -0.004860       -0.076093       0.943444        
-7.080680       19.234079       -0.012760       -0.002420       -0.076703       0.867351        
-7.205650       19.187609       -0.008580       -0.002220       -0.070507       0.900237        
-7.330270       19.140348       -0.007920       -0.002560       -0.070747       0.897204        
-7.454620       19.092258       -0.005900       -0.001400       -0.073059       0.877302        
-7.578650       19.043369       -0.006050       -0.004300       -0.075242       0.894059        
-7.702370       18.993670       -0.003830       -0.004420       -0.069415       0.872697        
-7.825720       18.943178       -0.002660       -0.005380       -0.072449       0.857030        
-7.948780       18.891869       -0.001700       -0.005010       -0.069785       0.826216        
-8.071500       18.839760       -0.001760       -0.005820       -0.071487       0.822572        
-8.193839       18.786879       0.000440        -0.004780       -0.073059       0.761887        
-8.315880       18.733179       0.004670        -0.003900       -0.077554       0.714445        
-8.437550       18.678690       0.006260        -0.003930       -0.079366       0.655702        
-8.558880       18.623409       0.010000        -0.003830       -0.082030       0.607279        
-8.679799       18.567360       0.008350        -0.006540       -0.082881       0.595516        
-8.800400       18.510509       0.006650        -0.008640       -0.085673       0.571970        
-8.920620       18.452869       0.005600        -0.007470       -0.084582       0.562870        
-9.040429       18.394468       0.006660        -0.002470       -0.073670       0.593684        
-9.159900       18.335270       0.008110        -0.001490       -0.069896       0.650856        
-9.278959       18.275299       0.009030        0.004290        -0.069175       0.642717        
-9.397619       18.214569       0.018910        0.005640        -0.069304       0.685684        
-9.515889       18.153059       0.033400        0.004120        -0.069304       0.726948        
-9.633780       18.090769       0.052170        0.007540        -0.069656       0.739433        
-9.751220       18.027748       0.063680        0.021190        -0.057282       0.804372        
-9.868279       17.963928       0.064100        0.035940        -0.044298       0.896963        
-9.984920       17.899359       0.059050        0.041920        -0.030333       0.980343        
-10.101139      17.834028       0.051260        0.040340        -0.028632       1.005942        
-10.216900      17.767969       0.046780        0.034790        -0.022325       1.009826        
-10.332259      17.701139       0.037850        0.029550        -0.020753       1.011527        
-10.447189      17.633549       0.030050        0.025180        -0.024766       1.010436        
-10.561640      17.565239       0.020740        0.022550        -0.022824       1.010566        
-10.675679      17.496159       0.015690        0.021100        -0.016868       1.005331        
-10.789260      17.426359       0.009260        0.018840        -0.020272       1.006182        
-10.902390      17.355799       0.005090        0.018010        -0.019291       1.003278        
-11.015019      17.284538       0.001850        0.016050        -0.022084       1.006441        
-11.127219      17.212519       -0.000010       0.014920        -0.027670       1.005091        
-11.238950      17.139769       -0.001250       0.015010        -0.024637       0.998062        
-11.350169      17.066330       -0.002210       0.013950        -0.025007       0.993568        
-11.460950      16.992128       -0.002400       0.012660        -0.025487       0.986040        
-11.571230      16.917219       -0.003200       0.009610        -0.033256       0.986521        
-11.681029      16.841599       -0.003810       0.006530        -0.040895       0.987131        
-11.790299      16.765280       -0.005360       0.005690        -0.053268       0.986891        
-11.899110      16.688229       -0.006660       0.005370        -0.049384       0.982766        
-12.007409      16.610479       -0.006890       0.002350        -0.060685       0.980954        
-12.115210      16.532019       -0.005440       0.001150        -0.061647       0.977180        
-12.222449      16.452888       -0.006550       -0.000080       -0.063959       0.988463        
-12.329220      16.373030       -0.005930       -0.000290       -0.066382       0.994900        
-12.435470      16.292479       -0.006600       -0.001590       -0.068935       1.000115        
-12.541149      16.211269       -0.007240       -0.002260       -0.070396       0.999524        
-12.646339      16.129349       -0.007550       -0.003200       -0.071358       0.995510        
-12.750990      16.046749       -0.008950       -0.003870       -0.075612       0.991755        
-12.855069      15.963490       -0.008350       -0.003200       -0.071358       0.995270        
-12.958639      15.879530       -0.009850       -0.005020       -0.070266       0.990165        
-13.061660      15.794900       -0.009930       -0.005430       -0.074631       0.999524        
-13.164089      15.709629       -0.011500       -0.006060       -0.076093       0.995639        
-13.266009      15.623670       -0.011500       -0.004860       -0.073300       0.993568        
-13.367359      15.537040       -0.013980       -0.004460       -0.073910       0.990405        
-13.468109      15.449789       -0.014380       -0.005580       -0.077794       0.980214        
-13.568330      15.361850       -0.014670       -0.006370       -0.082030       0.979862        
-13.667959      15.273270       -0.013560       -0.005100       -0.074520       0.965177        
-13.767019      15.184039       -0.013960       -0.006800       -0.076093       0.976219        
-13.865470      15.094190       -0.013200       -0.006780       -0.080587       0.954967        
-13.963369      15.003679       -0.011700       -0.005640       -0.078645       0.937377        
-14.060659      14.912530       -0.011090       -0.007930       -0.079126       0.947938        
-14.157370      14.820760       -0.014600       -0.009190       -0.078645       0.952673        
-14.253449      14.728379       -0.015700       -0.010820       -0.077665       0.957408        
-14.348960      14.635349       -0.013840       -0.008610       -0.081438       0.934954        
-14.443850      14.541699       -0.013150       -0.009060       -0.076462       0.956077        
-14.538110      14.447459       -0.013020       -0.009640       -0.078996       0.946607        
-14.631780      14.352590       -0.013740       -0.008810       -0.078645       0.937987        
-14.724830      14.257110       -0.014250       -0.009050       -0.082289       0.916144        
-14.817260      14.161030       -0.012220       -0.008530       -0.076943       0.932032        
-14.909039      14.064369       -0.011800       -0.008810       -0.075852       0.941132        
-15.000210      13.967090       -0.010990       -0.010280       -0.076573       0.930700        
-15.090750      13.869220       -0.010560       -0.010540       -0.075482       0.939800        
-15.180619      13.770789       -0.010810       -0.012750       -0.075371       0.959702        
-15.269879      13.671749       -0.010390       -0.011250       -0.073781       0.948549        
-15.358479      13.572140       -0.008860       -0.010870       -0.072079       0.942722        
-15.446440      13.471950       -0.008770       -0.013190       -0.072930       0.943925        
-15.533719      13.371220       -0.007970       -0.011490       -0.073670       0.898794        
-15.620370      13.269890       -0.007840       -0.013030       -0.069785       0.909707        
-15.706360      13.167999       -0.007870       -0.015860       -0.068454       0.928998        
-15.791659      13.065579       -0.008620       -0.016630       -0.071358       0.906914        
-15.876320      12.962580       -0.008800       -0.014510       -0.068935       0.883739        
-15.960299      12.859039       -0.008920       -0.015940       -0.067714       0.876692        
-16.043579      12.754979       -0.009880       -0.015410       -0.070266       0.817726        
-16.126209      12.650350       -0.009500       -0.011880       -0.073189       0.772448        
-16.208158      12.545179       -0.007980       -0.010400       -0.083491       0.712503        
-16.289389      12.439509       -0.002930       -0.008220       -0.085433       0.680468        
-16.369968      12.333289       -0.000740       -0.009720       -0.091740       0.630214        
-16.449839      12.226549       0.002510        -0.010970       -0.087856       0.620152        
-16.529030      12.119280       0.005610        -0.011560       -0.094533       0.617840        
-16.607489      12.011539       0.008360        -0.015680       -0.093331       0.620633        
-16.685280      11.903250       0.011140        -0.015820       -0.096605       0.608981        
-16.762348      11.794470       0.018810        -0.015080       -0.102671       0.596607        
-16.838699      11.685209       0.026710        -0.015990       -0.100008       0.597569        
-16.914349      11.575430       0.033210        -0.014620       -0.106075       0.599640        
-16.989288      11.465170       0.039960        -0.013110       -0.104373       0.629974        
-0.029310       19.508980       -0.011960       -0.044130       -0.013225       1.000726        
-0.156180       19.508369       -0.015260       -0.046430       -0.009951       1.006682        
-0.283080       19.506939       -0.018050       -0.047280       -0.017960       1.002668        
-0.409960       19.504688       -0.022490       -0.049790       -0.019051       1.001817        
-0.536790       19.501610       -0.027280       -0.049380       -0.018441       0.998062        
-0.663640       19.497709       -0.029650       -0.044040       -0.030333       0.968691        
-0.790450       19.492979       -0.029550       -0.034740       -0.024507       0.925244        
-0.917230       19.487419       -0.022700       -0.009690       -0.017849       0.838590        
-1.043940       19.481049       -0.000220       0.020310        -0.006918       0.861525        
-1.170640       19.473839       0.012460        0.038810        0.015648        0.954245        
-1.297280       19.465818       0.013770        0.050120        0.017960        1.001817        
-1.423880       19.456968       0.009490        0.053530        0.018200        1.007403        
-1.550380       19.447300       0.009230        0.051190        0.023305        1.005831        
-1.676850       19.436798       0.010370        0.053980        0.023786        1.008013        
-1.803240       19.425480       0.010770        0.051310        0.023656        1.009715        
-1.929530       19.413340       0.010500        0.047760        0.025118        1.010066        
-2.055770       19.400379       0.010300        0.048650        0.030093        1.012508        
-2.181920       19.386599       0.010610        0.046770        0.029372        1.012008        
-2.307940       19.372000       0.010370        0.045440        0.028891        1.008013        
-2.433910       19.356579       0.010810        0.043680        0.019791        1.008013        
-2.559760       19.340340       0.008580        0.037040        0.015777        1.009104        
-2.685510       19.323278       0.008460        0.031150        0.018681        1.008365        
-2.811110       19.305399       0.009230        0.028720        0.012133        1.010917        
-2.936640       19.286709       0.008060        0.026610        0.008989        1.006552        
-3.062030       19.267199       0.007730        0.023800        0.008619        1.002797        
-3.187260       19.246880       0.008400        0.021960        0.008989        1.001447        
-3.312390       19.225739       0.006840        0.019640        0.009340        1.008124        
-3.437380       19.203789       0.007470        0.018800        0.005956        1.007162        
-3.562230       19.181019       0.006690        0.016390        0.005216        1.006792        
-3.686880       19.157450       0.006850        0.015060        0.011172        1.006552        
-3.811420       19.133059       0.006220        0.015200        0.004125        1.005942        
-3.935800       19.107859       0.005580        0.013390        0.002663        1.005701        
-4.059970       19.081869       0.004640        0.013140        0.002072        1.005331        
-4.184020       19.055050       0.004870        0.011710        0.000370        1.001447        
-4.307870       19.027430       0.004130        0.010150        -0.000240       1.000966        
-4.431550       18.999008       0.003440        0.009320        -0.002312       1.000966        
-4.555010       18.969790       0.003240        0.009100        -0.006437       0.997452        
-4.678310       18.939758       0.002300        0.008900        0.000721        1.000615        
-4.801400       18.908930       0.005940        0.005730        -0.004254       1.000245        
-4.924270       18.877298       0.005730        0.004070        -0.003644       1.003389        
-5.046960       18.844870       0.004480        0.004400        -0.004014       0.999635        
-5.169430       18.811640       0.004610        0.003120        -0.003884       0.999394        
-5.291660       18.777630       0.006120        0.000670        -0.008730       0.999265        
-5.413690       18.742809       0.006870        -0.001560       -0.006437       0.998784        
-5.535500       18.707199       0.006970        -0.002850       -0.006437       0.998784        
-5.657030       18.670799       0.006980        -0.002810       -0.007768       0.998543        
-5.778370       18.633610       0.006270        -0.003090       -0.006196       1.001207        
-5.899450       18.595629       0.005310        -0.004940       -0.006196       0.998303        
-6.020280       18.556860       0.006110        -0.003700       -0.008730       0.997822        
-6.140830       18.517319       0.007110        -0.007240       -0.007398       1.000855        
-6.261160       18.476978       0.006340        -0.007580       -0.008730       1.000726        
-6.381220       18.435860       0.006430        -0.008260       -0.006918       0.996971        
-6.500970       18.393978       0.006110        -0.008990       -0.004735       0.996971        
-6.620480       18.351299       0.005520        -0.008330       -0.005586       0.997082        
-6.739710       18.307850       0.006140        -0.008090       -0.005697       0.993327        
-6.858660       18.263618       0.007330        -0.011360       -0.004606       0.996842        
-6.977280       18.218630       0.007530        -0.010510       -0.000481       1.000356        
-7.095640       18.172859       0.008340        -0.010170       -0.007768       1.000485        
-7.213700       18.126320       0.009020        -0.010840       -0.007528       0.997212        
-7.331460       18.079008       0.009780        -0.011150       -0.004125       0.999524        
-7.448860       18.030958       0.009920        -0.015710       -0.003274       0.999635        
-7.566000       17.982119       0.011300        -0.016630       -0.005456       0.999764        
-7.682810       17.932520       0.012090        -0.017130       -0.005826       0.999154        
-7.799260       17.882179       0.011890        -0.019590       -0.005345       0.995880        
-7.915420       17.831070       0.013700        -0.021830       -0.000851       0.998784        
-8.031240       17.779209       0.014730        -0.024410       -0.000481       1.001706        
-8.146720       17.726589       0.015320        -0.027420       -0.005105       0.998414        
-8.261820       17.673239       0.016340        -0.029350       -0.003755       0.998062        
-8.376610       17.619120       0.017170        -0.032930       0.000000        1.000966        
-8.491039       17.564259       0.016960        -0.034690       -0.002312       1.000726        
-8.605080       17.508669       0.017650        -0.037580       -0.004735       1.000245        
-8.718789       17.452318       0.016510        -0.039830       0.000962        0.999764        
-8.832129       17.395239       0.017060        -0.042720       -0.005826       1.002668        
-8.945069       17.337439       0.015630        -0.045400       -0.003033       1.002427        
-9.057650       17.278889       0.016510        -0.048150       -0.008249       1.001447        
-9.169860       17.219599       0.013670        -0.052330       -0.004254       1.001207        
-9.281639       17.159609       0.013360        -0.054180       -0.014686       0.996842        
-9.393069       17.098869       0.009030        -0.059290       -0.011172       0.995880        
-9.504089       17.037409       0.005300        -0.062320       -0.009340       0.997693        
-9.614710       16.975220       -0.003200       -0.063200       -0.020383       0.970633        
-9.724899       16.912338       -0.011710       -0.059340       -0.013225       0.906674        
-9.834709       16.848719       -0.017550       -0.031100       0.000240        0.898536        
-9.944099       16.784389       -0.021360       -0.000690       0.005345        0.883369        
-10.053040      16.719370       -0.011820       0.031620        0.020383        0.959461        
-10.161579      16.653620       -0.011130       0.042750        0.026449        1.005461        
-10.269690      16.587179       -0.013130       0.046790        0.026449        1.005461        
-10.377370      16.520020       -0.014430       0.046780        0.028521        1.007273        
-10.484579      16.452188       -0.012530       0.048450        0.030222        1.009955        
-10.591379      16.383638       -0.010570       0.042450        0.032886        1.006682        
-10.697729      16.314388       -0.010850       0.041660        0.034458        1.006312        
-10.803599      16.244478       -0.009650       0.041010        0.032405        1.002797        
-10.909039      16.173859       -0.009830       0.039200        0.033126        1.005091        
-11.014009      16.102558       -0.008730       0.037150        0.033626        1.010917        
-11.118520      16.030579       -0.008050       0.030670        0.020993        1.008254        
-11.222529      15.957939       -0.004530       0.025160        0.014075        1.006441        
-11.326099      15.884600       -0.002510       0.024480        0.017849        1.006182        
-11.429179      15.810590       -0.003130       0.022030        0.014445        1.005091        
-11.531790      15.735909       -0.002810       0.018510        0.013225        1.007033        
-11.633869      15.660589       -0.004040       0.017290        0.010191        1.009826        
-11.735499      15.584579       -0.003250       0.016070        0.006918        1.006312        
-11.836630      15.507910       -0.002430       0.015490        -0.000370       1.006441        
-11.937220      15.430610       -0.001970       0.014270        0.001942        1.005831        
-12.037350      15.352630       -0.002540       0.013880        0.005586        1.008864        
-12.136950      15.274010       -0.002800       0.012320        -0.002312       1.008494        
-12.236030      15.194750       -0.002540       0.012830        0.001942        1.008624        
-12.334599      15.114840       -0.002960       0.012280        -0.002312       1.008494        
-12.432670      15.034289       -0.003630       0.010610        -0.004254       1.007884        
-12.530169      14.953119       -0.002970       0.011590        -0.003514       1.004980        
-12.627170      14.871300       -0.002410       0.015000        -0.005216       1.003149        
-12.723639      14.788839       -0.001340       0.015460        0.001702        1.006552        
-12.819539      14.705790       -0.002460       0.013890        -0.003403       1.009345        
-12.914940      14.622089       -0.003280       0.009100        -0.007158       1.007532        
-13.009769      14.537780       -0.003370       0.010920        -0.010802       1.004980        
-13.104059      14.452840       -0.000570       0.010270        -0.004254       1.004739        
-13.197769      14.367319       -0.001500       0.010010        -0.006548       1.008013        
-13.290950      14.281159       -0.001570       0.010000        -0.006548       1.008013        
-13.383559      14.194409       -0.000660       0.006920        -0.008379       1.007033        
-13.475610      14.107050       -0.001110       0.007640        -0.009710       1.003889        
-13.567060      14.019119       -0.000570       0.005140        -0.007398       1.006312        
-13.657969      13.930570       0.000100        0.004570        -0.011652       1.006312        
-13.748300      13.841430       -0.000070       0.003720        -0.009821       1.002557        
-13.838019      13.751740       0.001180        0.002730        -0.010672       1.005701        
-13.927179      13.661429       0.001640        0.004510        -0.011652       1.003038        
-14.015750      13.570550       0.001600        0.001060        -0.012873       1.005220        
-14.103729      13.479090       0.000580        -0.001290       -0.015907       1.004369        
-14.191079      13.387090       0.000310        -0.001430       -0.010321       1.007532        
-14.277860      13.294499       0.001620        -0.002230       -0.013835       1.007403        
-14.364039      13.201340       0.003260        -0.002080       -0.008490       1.004129        
-14.449579      13.107650       0.002610        -0.002950       -0.012022       1.003889        
-14.534539      13.013379       0.003470        -0.004090       -0.012374       1.000245        
-14.618879      12.918559       0.004560        -0.002860       -0.009340       1.007273        
-14.702609      12.823199       0.005300        -0.004130       -0.011763       1.003648        
-14.785680      12.727320       0.006420        -0.006360       -0.015056       1.003149        
-14.868159      12.630870       0.007250        -0.004760       -0.007398       1.003519        
-14.950009      12.533879       0.007860        -0.006370       -0.009340       1.003038        
-15.031199      12.436399       0.009000        -0.005930       -0.004495       1.006441        
-15.111779      12.338360       0.010670        -0.010040       -0.011763       1.005590        
-15.191719      12.239799       0.011250        -0.010130       -0.008619       1.002187        
-15.270989      12.140750       0.012800        -0.010590       -0.007287       1.005461        
-15.349640      12.041160       0.013490        -0.012150       -0.009230       1.005091        
-15.427640      11.941059       0.015970        -0.013530       -0.008138       1.004980        
-15.504970      11.840480       0.017270        -0.013980       -0.009340       1.001577        
-15.581659      11.739369       0.018090        -0.016550       -0.014205       0.994419        
-15.657689      11.637770       0.020230        -0.018060       -0.010321       0.984098        
-15.733060      11.535669       0.020060        -0.018830       -0.016498       0.957408        
-15.807750      11.433120       0.020950        -0.019510       -0.017238       0.937266        
-15.881780      11.330040       0.020970        -0.020040       -0.021233       0.910558        
-15.955150      11.226489       0.022680        -0.020270       -0.027910       0.867592        
-16.027819      11.122499       0.024690        -0.021800       -0.032276       0.827677        
-16.099829      11.018009       0.022620        -0.023270       -0.032775       0.817227        
-16.171148      10.913050       0.023560        -0.025350       -0.036400       0.790537        
-0.027040       17.996979       -0.007710       -0.023090       -0.002312       1.006071        
-0.144080       17.996420       -0.007670       -0.021640       -0.003403       1.005942        
-0.261140       17.995098       -0.008330       -0.021700       -0.001572       1.006071        
-0.378190       17.993019       -0.007420       -0.020240       -0.004495       1.006182        
-0.495190       17.990179       -0.006880       -0.020280       -0.011412       0.988593        
-0.612200       17.986580       -0.006320       -0.018210       -0.015777       0.946366        
-0.729190       17.982220       -0.001570       -0.016460       -0.033367       0.872327        
-0.846140       17.977098       0.003430        -0.014230       -0.036770       0.823793        
-0.963030       17.971209       0.012030        -0.008450       -0.028151       0.839071        
-1.079910       17.964569       0.014580        0.001800        -0.016498       0.878893        
-1.196740       17.957159       0.011810        0.011730        0.000721        0.947568        
-1.313530       17.948999       0.006130        0.023930        0.010191        1.001706        
-1.430220       17.940079       0.000600        0.030970        0.014926        1.009474        
-1.546890       17.930399       0.001080        0.033540        0.015907        1.013599        
-1.663490       17.919949       0.001570        0.035620        0.023065        1.011287        
-1.779990       17.908758       0.003860        0.040600        0.028761        1.012138        
-1.896440       17.896799       0.005060        0.043900        0.025728        1.011897        
-2.012810       17.884089       0.005520        0.041800        0.024267        1.008494        
-2.129070       17.870619       0.006220        0.042150        0.020272        1.008013        
-2.245270       17.856390       0.007670        0.038070        0.011523        1.010196        
-2.361370       17.841410       0.007520        0.029760        0.009581        1.013470        
-2.477380       17.825668       0.007950        0.026770        0.001942        1.013340        
-2.593250       17.809179       0.007910        0.025220        0.002072        1.012989        
-2.709040       17.791939       0.007360        0.023800        -0.001572       1.012989        
-2.824720       17.773939       0.007840        0.022430        -0.000851       1.009345        
-2.940240       17.755199       0.008480        0.021390        0.001221        1.012989        
-3.055680       17.735689       0.009790        0.020070        -0.002423       1.012508        
-3.170970       17.715439       0.008150        0.018950        -0.003163       1.012748        
-3.286140       17.694439       0.010470        0.017320        -0.008730       1.009215        
-3.401140       17.672699       0.011350        0.015440        -0.007768       1.008975        
-3.516030       17.650200       0.010640        0.015500        -0.002793       1.008975        
-3.630770       17.626949       0.012330        0.013790        -0.006067       1.012378        
-3.745320       17.602968       0.010670        0.014050        -0.007879       1.012508        
-3.859740       17.578230       0.012220        0.012230        -0.007768       1.012138        
-3.974000       17.552759       0.011870        0.010810        -0.012614       1.011897        
-4.088100       17.526539       0.012370        0.007120        -0.008860       1.012008        
-4.201980       17.499578       0.013530        0.006870        -0.008249       1.015171        
-4.315730       17.471880       0.013020        0.005090        -0.015407       1.011417        
-4.429280       17.443439       0.012800        0.002240        -0.010672       1.014561        
-4.542630       17.414259       0.012710        0.000650        -0.016998       1.014690        
-4.655800       17.384338       0.012910        -0.000040       -0.010321       1.014690        
-4.768790       17.353689       0.013840        -0.000320       -0.012133       1.014450        
-4.881540       17.322309       0.013510        -0.001990       -0.013964       1.017594        
-4.994120       17.290190       0.011650        -0.002650       -0.016498       1.014191        
-5.106480       17.257339       0.011740        -0.002450       -0.019791       1.010566        
-5.218600       17.223768       0.012320        -0.003560       -0.013595       1.010066        
-5.330530       17.189459       0.009920        -0.002760       -0.010561       1.010066        
-5.442220       17.154419       0.011720        -0.004340       -0.013964       1.010307        
-5.553700       17.118660       0.011720        -0.003530       -0.011652       1.009955        
-5.664900       17.082178       0.010920        -0.004470       -0.012984       1.009955        
-5.775900       17.044970       0.011110        -0.005190       -0.009821       1.009474        
-5.886650       17.007029       0.009900        -0.006390       -0.014926       1.009715        
-5.997120       16.968399       0.010920        -0.006720       -0.015167       1.009474        
-6.107380       16.929029       0.009650        -0.007130       -0.014445       1.005831        
-6.217360       16.888939       0.010740        -0.008170       -0.008619       1.005590        
-6.327090       16.848139       0.010140        -0.008350       -0.009340       1.008864        
-6.436520       16.806639       0.010120        -0.010880       -0.010321       1.008494        
-6.545710       16.764420       0.009340        -0.012760       -0.009951       1.008624        
-6.654610       16.721479       0.010720        -0.013790       -0.013964       1.008624        
-6.763250       16.677839       0.010440        -0.013870       -0.012022       1.004850        
-6.871560       16.633509       0.010110        -0.014630       -0.008989       1.001207        
-6.979610       16.588459       0.010530        -0.015080       -0.004365       1.004499        
-7.087370       16.542700       0.010840        -0.016770       -0.006788       1.004369        
-7.194800       16.496269       0.010440        -0.017790       -0.008138       1.007773        
-7.301950       16.449120       0.010110        -0.019670       -0.007287       1.007643        
-7.408790       16.401270       0.010730        -0.021910       -0.009100       1.007403        
-7.515330       16.352730       0.010770        -0.023530       -0.006788       1.003759        
-7.621510       16.303509       0.011950        -0.025410       -0.005216       1.007033        
-7.727400       16.253590       0.011350        -0.027470       -0.004975       1.006922        
-7.832970       16.202978       0.011690        -0.029090       -0.008989       1.007033        
-7.938170       16.151699       0.012620        -0.031210       -0.006307       1.006682        
-8.043070       16.099718       0.011210        -0.031930       -0.002904       1.006682        
-8.147610       16.047070       0.012500        -0.033110       -0.006067       1.006552        
-8.251800       15.993739       0.011780        -0.033390       -0.002552       1.006441        
-8.355659       15.939730       0.011000        -0.032260       -0.006437       1.009826        
-8.459169       15.885039       0.010260        -0.033600       -0.006677       1.009585        
-8.562289       15.829690       0.010470        -0.036260       -0.008860       1.006071        
-8.665079       15.773660       0.010950        -0.037660       -0.004365       1.005831        
-8.767500       15.716960       0.010790        -0.038730       -0.011172       1.008975        
-8.869550       15.659599       0.008360        -0.040410       -0.016739       0.991015        
-8.971189       15.601589       0.006810        -0.040010       -0.022454       0.937618        
-9.072490       15.542899       0.002810        -0.030870       -0.035919       0.850002        
-9.173409       15.483560       0.004900        -0.014040       -0.030333       0.820149        
-9.273899       15.423579       0.006960        0.005030        -0.022084       0.858011        
-9.374029       15.362920       0.008370        0.017310        -0.006067       0.944184        
-9.473760       15.301629       0.000930        0.021410        0.009230        0.998913        
-9.573099       15.239679       -0.008360       0.029020        0.016628        1.010917        
-9.672000       15.177099       -0.013240       0.035580        0.022565        1.012138        
-9.770519       15.113859       -0.014810       0.040700        0.025728        1.011897        
-9.868629       15.049990       -0.013940       0.039790        0.022695        1.015652        
-9.966290       14.985490       -0.014590       0.039920        0.027541        1.012748        
-10.063560      14.920349       -0.014980       0.042880        0.027799        1.016263        
-10.160399      14.854569       -0.014500       0.042200        0.020142        1.011657        
-10.256809      14.788170       -0.011520       0.037430        0.011523        1.010196        
-10.352759      14.721149       -0.007110       0.029860        0.005586        1.013470        
-10.448299      14.653500       -0.005610       0.027100        0.009581        1.013470        
-10.543389      14.585230       -0.005520       0.027370        0.003403        1.013100        
-10.638049      14.516330       -0.004750       0.025190        0.001942        1.012748        
-10.732220      14.446850       -0.003180       0.022830        -0.000240       1.012508        
-10.825970      14.376730       -0.002160       0.020930        -0.000962       1.009104        
-10.919259      14.306000       -0.001120       0.021180        -0.002663       1.012619        
-11.012059      14.234699       -0.000630       0.020520        -0.004606       1.009104        
-11.104420      14.162760       -0.000160       0.020230        -0.001332       1.012138        
-11.196309      14.090230       0.000670        0.018060        -0.006677       1.012008        
-11.287700      14.017119       0.000650        0.016980        -0.006677       1.012008        
-11.378639      13.943399       0.000540        0.016990        -0.005216       1.011897        
-11.469100      13.869089       0.000490        0.016130        -0.008989       1.012138        
-11.559050      13.794220       0.001080        0.016710        -0.006918       1.011897        
-11.648529      13.718730       0.001710        0.015380        -0.008249       1.011768        
-11.737530      13.642670       0.001990        0.014800        -0.006788       1.011527        
-11.825990      13.566050       0.001980        0.013950        -0.011523       1.008124        
-11.913989      13.488839       0.002730        0.013910        -0.009951       1.007884        
-12.001479      13.411059       0.002810        0.013140        -0.008989       1.011657        
-12.088460      13.332700       0.002610        0.013730        -0.011523       1.011417        
-12.174910      13.253810       0.002260        0.012560        -0.012873       1.011417        
-12.260870      13.174339       0.002650        0.011920        -0.009710       1.014801        
-12.346299      13.094310       0.003120        0.011350        -0.012263       1.011287        
-12.431219      13.013720       0.003050        0.011520        -0.013595       1.014561        
-12.515579      12.932599       0.003300        0.009480        -0.012133       1.011047        
-12.599440      12.850920       0.003520        0.010060        -0.010432       1.014690        
-12.682770      12.768680       0.003880        0.010370        -0.015907       1.014690        
-12.765539      12.685940       0.003960        0.009400        -0.016628       1.011158        
-12.847790      12.602630       0.005100        0.009790        -0.012614       1.014561        
-12.929489      12.518800       0.005190        0.008840        -0.013354       1.014450        
-13.010650      12.434429       0.006220        0.007840        -0.015907       1.014191        
-13.091229      12.349560       0.006060        0.006600        -0.012873       1.010566        
-13.171289      12.264139       0.006520        0.006440        -0.015537       1.013839        
-13.250790      12.178200       0.005680        0.005320        -0.012263       1.013710        
-13.329700      12.091769       0.006950        0.004710        -0.010672       1.013599        
-13.408079      12.004809       0.007250        0.003930        -0.013225       1.013340        
-13.485880      11.917339       0.007160        0.002690        -0.014205       1.009715        
-13.563120      11.829359       0.007400        0.002120        -0.015167       1.009345        
-13.639750      11.740919       0.007610        0.000130        -0.012022       1.009215        
-13.715839      11.651939       0.009000        -0.000350       -0.012022       1.009215        
-13.791340      11.562469       0.009000        -0.000290       -0.012984       1.008975        
-13.866240      11.472540       0.009260        -0.002260       -0.010802       1.008735        
-13.940579      11.382099       0.010190        -0.003460       -0.008138       1.012008        
-14.014319      11.291180       0.011020        -0.004950       -0.012133       1.012008        
-14.087449      11.199809       0.010810        -0.005330       -0.011523       1.012008        
-14.160000      11.107940       0.011460        -0.005610       -0.009951       1.011897        
-14.231959      11.015590       0.011810        -0.006280       -0.011652       1.008124        
-14.303289      10.922810       0.013350        -0.007860       -0.010191       1.008013        
-14.374040      10.829539       0.013660        -0.008590       -0.011172       1.007643        
-14.444180      10.735809       0.014170        -0.010580       -0.008249       1.007532        
-14.513709      10.641620       0.014060        -0.010730       -0.007528       1.010917        
-14.582600      10.547020       0.014840        -0.012380       -0.010931       1.010566        
-14.650900      10.451940       0.015450        -0.015500       -0.007879       1.006922        
-14.718579      10.356409       0.016180        -0.015720       -0.008989       1.010066        
-14.785620      10.260480       0.015940        -0.017680       -0.012984       1.006441        
-14.852050      10.164080       0.015840        -0.019130       -0.012133       1.006312        
-14.917850      10.067260       0.015630        -0.019530       -0.006677       1.009715        
-0.024040       16.001980       -0.002100       -0.007010       0.007287        1.004129        
-0.128110       16.001478       -0.002560       -0.006130       0.014556        1.007273        
-0.232190       16.000309       -0.002020       -0.006140       0.017960        1.007162        
-0.336270       15.998460       -0.002380       -0.006060       0.016498        1.006922        
-0.440290       15.995939       -0.004020       -0.006820       0.021714        1.006792        
-0.544340       15.992740       -0.003360       -0.007430       0.019532        1.009715        
-0.648360       15.988859       -0.005240       -0.009230       0.016387        1.009215        
-0.752340       15.984300       -0.007670       -0.011580       0.011893        1.008735        
-0.856280       15.979070       -0.008540       -0.014690       0.008989        1.004850        
-0.960200       15.973160       -0.011970       -0.017660       -0.000240       0.994659        
-1.064080       15.966579       -0.017040       -0.019690       -0.010802       0.952544        
-1.167920       15.959319       -0.017410       -0.017130       -0.020512       0.872567        
-1.271680       15.951389       -0.007510       -0.006530       -0.026098       0.835316        
-1.375410       15.942780       0.000390        0.003540        -0.014556       0.831062        
-1.479090       15.933490       0.007520        0.014050        -0.003163       0.879244        
-1.582670       15.923539       0.009080        0.021790        -0.000129       0.939689        
-1.686220       15.912910       0.005360        0.025200        0.011893        0.996472        
-1.789690       15.901600       0.001530        0.028340        0.015537        1.009715        
-1.893060       15.889629       -0.000570       0.029230        0.014316        1.012619        
-1.996380       15.876980       -0.000170       0.027690        0.014556        1.014561        
-2.099610       15.863660       0.001000        0.022820        0.010080        1.014801        
-2.202760       15.849660       0.001970        0.022780        0.009470        1.011287        
-2.305780       15.834999       0.003870        0.021270        0.007639        1.014450        
-2.408740       15.819670       0.004170        0.020350        0.002072        1.010566        
-2.511590       15.803670       0.005060        0.017800        0.006918        1.010307        
-2.614310       15.787000       0.006520        0.016880        0.001091        1.010436        
-2.716950       15.769660       0.007450        0.016190        0.000129        1.010066        
-2.819460       15.751650       0.008500        0.014310        -0.002072       1.009585        
-2.921870       15.732980       0.008590        0.012270        0.000370        1.009826        
-3.024120       15.713650       0.010260        0.012760        0.000240        1.012619        
-3.126270       15.693640       0.010220        0.011100        -0.004495       1.012619        
-3.228290       15.672970       0.010600        0.010440        -0.005216       1.012378        
-3.330140       15.651649       0.010820        0.009140        -0.000721       1.012378        
-3.431880       15.629649       0.011230        0.009420        -0.005586       1.015652        
-3.533470       15.606999       0.011040        0.009150        -0.004606       1.012138        
-3.634920       15.583690       0.011840        0.008190        -0.008490       1.012508        
-3.736180       15.559719       0.011000        0.009420        -0.008730       1.011768        
-3.837320       15.535089       0.010930        0.006600        -0.007287       1.011897        
-3.938290       15.509800       0.010900        0.007400        -0.008730       1.011768        
-4.039070       15.483859       0.010840        0.006740        -0.008730       1.011768        
-4.139700       15.457259       0.010790        0.006810        -0.006067       1.011527        
-4.240160       15.429999       0.012250        0.005950        -0.008379       1.014931        
-4.340410       15.402100       0.011430        0.006220        -0.006307       1.011287        
-4.440510       15.373540       0.011600        0.005210        -0.011412       1.011047        
-4.540420       15.344330       0.011540        0.003610        -0.011412       1.011047        
-4.640110       15.314480       0.011520        0.003690        -0.008009       1.007532        
-4.739630       15.283970       0.011580        0.003480        -0.006548       1.010677        
-4.838940       15.252819       0.011730        0.002660        -0.009100       1.010436        
-4.938060       15.221020       0.011010        0.001670        -0.010191       1.013470        
-5.036930       15.188589       0.011880        0.000350        -0.012374       1.010196        
-5.135630       15.155499       0.012170        -0.000110       -0.008860       1.006682        
-5.234110       15.121770       0.012300        -0.000410       -0.009340       1.009715        
-5.332330       15.087420       0.011330        -0.000880       -0.008249       1.006312        
-5.430360       15.052409       0.011230        -0.001380       -0.008860       1.006071        
-5.528160       15.016769       0.011750        -0.002720       -0.006307       1.006071        
-5.625720       14.980490       0.011020        -0.002070       -0.005826       1.006071        
-5.723020       14.943589       0.009100        -0.001130       -0.005456       1.009215        
-5.820110       14.906050       0.009900        -0.001730       -0.003755       1.005461        
-5.916940       14.867880       0.009770        -0.003760       -0.004735       1.008735        
-6.013530       14.829069       0.007400        -0.003380       -0.002793       1.008735        
-6.109830       14.789650       0.008710        -0.003550       -0.004846       1.008365        
-6.205910       14.749599       0.009400        -0.005600       -0.004495       1.004980        
-6.301730       14.708910       0.009080        -0.005480       -0.002793       1.008124        
-6.397240       14.667629       0.008280        -0.006000       -0.002663       1.004610        
-6.492520       14.625700       0.007480        -0.006760       -0.001572       1.007532        
-6.587510       14.583159       0.007400        -0.008630       -0.003033       1.007403        
-6.682240       14.540000       0.007660        -0.009260       -0.003033       1.007273        
-6.776650       14.496240       0.006360        -0.009840       -0.003644       1.006792        
-6.870800       14.451850       0.005580        -0.011750       -0.004606       1.003648        
-6.964670       14.406850       0.006900        -0.011780       0.000000        1.009826        
-7.058210       14.361259       0.004870        -0.013110       -0.001221       1.009715        
-7.151480       14.315040       0.004150        -0.013480       -0.000962       1.006182        
-7.244440       14.268220       0.003480        -0.014390       0.001091        1.006071        
-7.337080       14.220799       0.002420        -0.014970       0.002072        1.009345        
-7.429420       14.172779       0.001350        -0.014880       0.006677        1.009585        
-7.521460       14.124149       -0.000400       -0.012460       0.008619        1.009345        
-7.613140       14.074940       -0.001790       -0.013940       0.005586        1.009345        
-7.704540       14.025120       -0.003660       -0.014340       0.009821        1.005942        
-7.795600       13.974710       -0.005500       -0.014180       0.018330        1.012859        
-7.886340       13.923699       -0.008350       -0.011860       0.015777        1.009955        
-7.976720       13.872129       -0.011850       -0.010510       0.020272        1.006792        
-8.066790       13.819940       -0.014720       -0.010110       0.026690        1.007273        
-8.156520       13.767179       -0.019520       -0.008670       0.019661        1.006922        
-8.245870       13.713849       -0.021860       -0.011990       0.016258        1.009715        
-8.334900       13.659920       -0.023650       -0.015970       0.010191        1.009345        
-8.423579       13.605410       -0.027010       -0.021560       0.011172        1.006071        
-8.511900       13.550329       -0.029960       -0.023200       0.007528        0.993568        
-8.599839       13.494690       -0.033120       -0.022660       0.007158        0.993568        
-8.687440       13.438459       -0.037880       -0.026520       -0.000610       0.961052        
-8.774670       13.381670       -0.033770       -0.023470       -0.008379       0.934825        
-8.861509       13.324320       -0.029510       -0.021560       -0.011042       0.908486        
-8.947989       13.266399       -0.022730       -0.018000       -0.002663       0.958370        
-9.034100       13.207919       -0.015450       -0.009130       0.004735        1.004980        
-9.119820       13.148870       -0.015790       -0.005850       0.008490        1.015893        
-9.205130       13.089290       -0.013290       -0.000070       0.002552        1.013100        
-9.290079       13.029130       -0.011500       0.001980        0.007398        1.010566        
-9.374640       12.968430       -0.010480       0.005610        0.010191        1.011417        
-9.458799       12.907169       -0.007480       0.009510        0.003755        1.018075        
-9.542529       12.845389       -0.006400       0.009440        0.001942        1.015171        
-9.625890       12.783039       -0.004660       0.011000        0.003163        1.015541        
-9.708839       12.720160       -0.002830       0.012420        -0.000610       1.015541        
-9.791349       12.656750       -0.001490       0.012370        -0.000129       1.015282        
-9.873480       12.592790       -0.000060       0.011890        -0.003033       1.012138        
-9.955179       12.528299       -0.000200       0.011970        -0.004365       1.012508        
-10.036440      12.463300       0.002420        0.013240        -0.004365       1.012249        
-10.117299      12.397750       0.001180        0.012300        -0.000610       1.012619        
-10.197729      12.331679       0.002050        0.014140        -0.004975       1.012619        
-10.277710      12.265100       0.001640        0.013750        -0.007639       1.012619        
-10.357269      12.197980       0.002450        0.013480        -0.005697       1.012249        
-10.436399      12.130349       0.002440        0.012640        -0.008249       1.012249        
-10.515059      12.062229       0.003190        0.012450        -0.006437       1.012008        
-10.593300      11.993569       0.003200        0.011620        -0.010802       1.008624        
-10.671089      11.924419       0.003450        0.011130        -0.007879       1.011897        
-10.748440      11.854750       0.003440        0.011070        -0.010432       1.011897        
-10.825299      11.784599       0.004280        0.010840        -0.008730       1.014931        
-10.901730      11.713940       0.003690        0.010110        -0.011523       1.014690        
-10.977690      11.642779       0.004370        0.008910        -0.011523       1.014690        
-11.053189      11.571119       0.004310        0.008940        -0.016998       1.011417        
-11.128200      11.499000       0.005090        0.008810        -0.011042       1.014450        
-11.202769      11.426370       0.005810        0.008630        -0.013595       1.014450        
-11.276859      11.353250       0.006680        0.008450        -0.011042       1.014450        
-11.350450      11.279679       0.005700        0.008700        -0.014205       1.014191        
-11.423590      11.205609       0.007560        0.007550        -0.014205       1.014191        
-11.496229      11.131060       0.007520        0.007600        -0.014556       1.011047        
-11.568390      11.056049       0.006470        0.007910        -0.011652       1.014191        
-11.640050      10.980590       0.006490        0.007890        -0.012984       1.013839        
-11.711229      10.904630       0.004880        0.006100        -0.011042       1.013839        
-11.781919      10.828219       0.005960        0.006470        -0.012503       1.013710        
-11.852079      10.751380       0.006360        0.005960        -0.011523       1.016984        
-11.921769      10.674049       0.005290        0.005590        -0.013595       1.013599        
-11.990939      10.596279       0.005770        0.005300        -0.014205       1.009715        
-12.059620      10.518060       0.006440        0.003260        -0.007287       1.013340        
-12.127760      10.439409       0.006070        0.005050        -0.014316       1.013100        
-12.195410      10.360299       0.005760        0.003360        -0.014205       1.009715        
-12.262549      10.280749       0.006370        0.003390        -0.015296       1.009826        
-12.329140      10.200789       0.006810        0.003830        -0.014926       1.009474        
-12.395240      10.120370       0.007410        0.002580        -0.011283       1.012378        
-12.460799      10.039539       0.007220        0.000980        -0.011283       1.012378        
-12.525829      9.958289        0.007210        0.001020        -0.009470       1.012138        
-12.590340      9.876599        0.007370        0.000310        -0.011652       1.015652        
-12.654320      9.794490        0.007600        0.001310        -0.009100       1.015652        
-12.717739      9.712000        0.006590        0.001370        -0.008249       1.012008        
-12.780649      9.629060        0.006860        -0.000050       -0.005456       1.012249        
-12.843010      9.545730        0.005920        0.001070        -0.008009       1.012008        
-12.904840      9.461980        0.005960        -0.000170       -0.004975       1.011897        
-12.966089      9.377859        0.006630        -0.000240       -0.008249       1.011768        
-13.026819      9.293320        0.005990        -0.001090       -0.004975       1.011657        
-13.087000      9.208380        0.005680        -0.001320       -0.005697       1.011417        
-13.146600      9.123090        0.006930        -0.002140       -0.005697       1.011287        
-13.205669      9.037370        0.006090        -0.003330       -0.002423       1.011158        
-13.264179      8.951289        0.005810        -0.003570       -0.005345       1.014320        
0.057540        11.499860       -0.004070       0.020860        -0.008212       1.020757        
-0.017260       11.499990       -0.003010       0.023450        -0.010543       1.021201        
-0.092070       11.499630       -0.001890       0.026680        -0.002700       1.021608        
-0.166870       11.498790       -0.001120       0.029870        -0.004772       1.024956        
-0.241640       11.497459       -0.000460       0.033560        -0.010395       1.025788        
-0.316430       11.495640       0.000690        0.036800        -0.006067       1.020868        
-0.391190       11.493340       0.002240        0.040120        -0.007694       1.021552        
-0.465930       11.490560       0.003010        0.044470        -0.006696       1.017076        
-0.540660       11.487280       0.003140        0.049990        -0.015000       1.002224        
-0.615370       11.483520       0.004240        0.055010        -0.021844       0.959813        
-0.690040       11.479280       0.006970        0.060250        -0.019384       0.906304        
-0.764690       11.474549       0.009630        0.059550        -0.030851       0.842955        
-0.839320       11.469330       0.016700        0.057420        -0.041727       0.773281        
-0.913910       11.463630       0.027090        0.047470        -0.047109       0.706677        
-0.988440       11.457439       0.038860        0.033820        -0.054508       0.681134        
-1.062940       11.450769       0.048320        0.013230        -0.064385       0.694229        
-1.137400       11.443609       0.053040        -0.008730       -0.072597       0.716738        
-1.211800       11.435980       0.057660        -0.028310       -0.069341       0.767732        
-1.286160       11.427850       0.059590        -0.041600       -0.067140       0.822388        
-1.360470       11.419240       0.054500        -0.049020       -0.060057       0.898924        
-1.434720       11.410150       0.047270        -0.051540       -0.057708       0.958999        
-1.508890       11.400579       0.038810        -0.051370       -0.046517       0.994252        
-1.583020       11.390519       0.031030        -0.048790       -0.038546       1.016041        
-1.657080       11.379990       0.025950        -0.045950       -0.035198       1.018815        
-1.731070       11.368970       0.022190        -0.041450       -0.034625       1.016281        
-1.804960       11.357470       0.019560        -0.038230       -0.028465       1.016355        
-1.878810       11.345490       0.017220        -0.036120       -0.029353       1.016558        
-1.952560       11.333030       0.013480        -0.034290       -0.030185       1.016817        
-2.026220       11.320089       0.011430        -0.032100       -0.029464       1.014283        
-2.099810       11.306669       0.009790        -0.029850       -0.026283       1.017187        
-2.173320       11.292769       0.006680        -0.028870       -0.026727       1.020184        
-2.246730       11.278399       0.005250        -0.027590       -0.028669       1.017650        
-2.320030       11.263550       0.003490        -0.026420       -0.029150       1.020591        
-2.393240       11.248219       0.003000        -0.025690       -0.029335       1.017946        
-2.466360       11.232409       0.002870        -0.024080       -0.028391       1.018057        
-2.539350       11.216140       0.000220        -0.023470       -0.035142       1.018408        
-2.612260       11.199380       -0.000770       -0.022680       -0.031832       1.015782        
-2.685050       11.182150       -0.000870       -0.021810       -0.026653       1.021238        
-2.757710       11.164450       -0.002380       -0.020660       -0.028484       1.018741        
-2.830280       11.146279       -0.003590       -0.019540       -0.030019       1.021700        
-2.902720       11.127629       -0.004150       -0.018890       -0.030167       1.019074        
-2.975020       11.108520       -0.004270       -0.018240       -0.030851       1.019166        
-3.047220       11.088929       -0.005570       -0.016760       -0.025229       1.019314        
-3.119290       11.068879       -0.006430       -0.016360       -0.026893       1.019481        
-3.191220       11.048349       -0.006700       -0.014870       -0.025876       1.019610        
-3.263000       11.027369       -0.008250       -0.014920       -0.034403       1.014431        
-3.334670       11.005910       -0.007330       -0.013530       -0.027263       1.014376        
-3.406180       10.983979       -0.007520       -0.012830       -0.024970       1.017150        
-3.477540       10.961599       -0.008810       -0.011860       -0.026468       1.020128        
-3.548770       10.938749       -0.009320       -0.012060       -0.025321       1.020165        
-3.619850       10.915429       -0.010230       -0.011650       -0.024026       1.023014        
-3.690770       10.891660       -0.009980       -0.010160       -0.027060       1.020442        
-3.761530       10.867419       -0.010660       -0.009520       -0.024230       1.020553        
-3.832130       10.842730       -0.010310       -0.008700       -0.023065       1.023309        
-3.902590       10.817570       -0.012030       -0.008930       -0.028040       1.023568        
-3.972850       10.791960       -0.011220       -0.007610       -0.023804       1.020813        
-4.042970       10.765889       -0.011350       -0.006830       -0.022103       1.020886        
-4.112910       10.739360       -0.011590       -0.006280       -0.022750       1.020979        
-4.182680       10.712379       -0.011950       -0.005870       -0.025524       1.021108        
-4.252260       10.684959       -0.010900       -0.005140       -0.020642       1.018260        
-4.321670       10.657069       -0.012170       -0.004210       -0.019957       1.021238        
-4.390900       10.628730       -0.011670       -0.003130       -0.017257       1.021238        
-4.459950       10.599950       -0.012160       -0.001770       -0.016184       1.021423        
-4.528780       10.570720       -0.011810       -0.000730       -0.012651       1.024179        
-4.597450       10.541039       -0.011830       0.000490        -0.017997       1.021645        
-4.665920       10.510909       -0.012170       0.001090        -0.015685       1.024456        
-4.734170       10.480339       -0.012610       0.002570        -0.015167       1.021922        
-4.802240       10.449329       -0.012580       0.004010        -0.018126       1.019388        
-4.870110       10.417870       -0.012300       0.006070        -0.011523       1.019462        
-4.937770       10.385969       -0.012130       0.006860        -0.010339       1.022237        
-5.005210       10.353640       -0.012170       0.008380        -0.010339       1.022422        
-5.072450       10.320860       -0.012320       0.009640        -0.012707       1.022625        
-5.139480       10.287649       -0.012880       0.011180        -0.009193       1.022810        
-5.206270       10.254009       -0.013540       0.012450        -0.008064       1.023032        
-5.272860       10.219930       -0.013040       0.015890        -0.007028       1.023365        
-5.339230       10.185410       -0.013240       0.018500        -0.003699       1.020942        
-5.405350       10.150470       -0.014110       0.021140        -0.001924       1.024123        
-5.471270       10.115100       -0.014980       0.023660        -0.003089       1.024604        
-5.536950       10.079300       -0.014760       0.027910        -0.001054       1.022440        
-5.602380       10.043070       -0.015590       0.030560        -0.002793       1.020276        
-5.667580       10.006419       -0.015900       0.033420        -0.005641       1.018094        
-5.732560       9.969339        -0.016850       0.037890        0.000721        1.021682        
-5.797290       9.931840        -0.018840       0.042030        -0.002589       1.020128        
-5.861750       9.893929        -0.020920       0.046740        -0.005197       1.007828        
-5.925980       9.855590        -0.022000       0.052070        -0.012078       0.976441        
-5.989960       9.816839        -0.023580       0.056080        -0.017812       0.925706        
-6.053680       9.777670        -0.020190       0.060690        -0.027596       0.849447        
-6.117150       9.738090        -0.012310       0.063590        -0.032313       0.763404        
-6.180370       9.698090        0.000270        0.059790        -0.043928       0.702459        
-6.243320       9.657689        0.017660        0.048790        -0.055266       0.675881        
-6.305990       9.616879        0.034100        0.034560        -0.060463       0.686109        
-6.368410       9.575660        0.052400        0.015100        -0.069952       0.719217        
-6.430570       9.534030        0.062380        0.002220        -0.066049       0.762183        
-6.492430       9.492009        0.068630        -0.006680       -0.064311       0.811308        
-6.554040       9.449579        0.067100        -0.014130       -0.061814       0.871439        
-6.615370       9.406750        0.061910        -0.019470       -0.049458       0.931384        
-6.676410       9.363520        0.052710        -0.023660       -0.039655       0.980454        
-6.737170       9.319900        0.045990        -0.026350       -0.035697       1.002372        
-6.797650       9.275880        0.038750        -0.025560       -0.037380       1.008124        
-6.857840       9.231469        0.036230        -0.025880       -0.027799       1.013543        
-6.917750       9.186660        0.031310        -0.025670       -0.030925       1.016595        
-6.977340       9.141479        0.028440        -0.024560       -0.027337       1.016743        
-7.036660       9.095900        0.024490        -0.023510       -0.028391       1.014302        
-7.095670       9.049939        0.020300        -0.022740       -0.027947       1.017372        
-7.154380       9.003599        0.018380        -0.022170       -0.026949       1.017539        
-7.212790       8.956880        0.016510        -0.021700       -0.028854       1.015005        
-7.270900       8.909769        0.013990        -0.020800       -0.030629       1.015282        
-7.328700       8.862280        0.012150        -0.020150       -0.027448       1.015449        
-7.386180       8.814440        0.010720        -0.019320       -0.027504       1.015615        
-7.443360       8.766210        0.008790        -0.018870       -0.026412       1.015819        
-7.500230       8.717600        0.006770        -0.018840       -0.029760       1.016096        
-7.556760       8.668639        0.004820        -0.017580       -0.030444       1.016373        
-7.612990       8.619300        0.003410        -0.017700       -0.028632       1.016521        
-7.668890       8.569599        0.002620        -0.017170       -0.023693       1.016558        
-7.724460       8.519549        0.002010        -0.017140       -0.028021       1.019444        
-7.779710       8.469119        0.001120        -0.017250       -0.032627       1.016891        
-7.834640       8.418340        -0.000260       -0.016420       -0.030481       1.017058        
-7.889220       8.367209        -0.000540       -0.015380       -0.027263       1.014376        
-7.943480       8.315720        -0.002470       -0.015120       -0.026061       1.014616        
-7.997400       8.263869        -0.003470       -0.015150       -0.024766       1.017483        
-8.050989       8.211670        -0.003600       -0.015830       -0.027836       1.022995        
-8.104219       8.159140        -0.004480       -0.014760       -0.029742       1.020442        
-8.157120       8.106250        -0.004280       -0.014460       -0.028206       1.017687        
-8.209680       8.053020        -0.004640       -0.014890       -0.027060       1.017724        
-8.261869       7.999460        -0.006110       -0.014340       -0.026986       1.017946        
-8.313729       7.945550        -0.007520       -0.013880       -0.029871       1.015486        
-8.365239       7.891310        -0.007890       -0.012680       -0.021548       1.015467        
-8.416389       7.836730        -0.007810       -0.012730       -0.021548       1.015467        
-8.467179       7.781830        -0.008870       -0.012490       -0.029446       1.015745        
-8.517619       7.726590        -0.008160       -0.012640       -0.027263       1.012896        
-8.567699       7.671020        -0.007640       -0.011620       -0.018866       1.015467        
-8.617399       7.615140        -0.009680       -0.012350       -0.023638       1.018574        
-8.666759       7.558920        -0.010590       -0.012170       -0.020771       1.018685        
-8.715739       7.502390        -0.011200       -0.011160       -0.025340       1.018889        
-8.764359       7.445540        -0.011100       -0.011070       -0.023212       1.018852        
-8.812590       7.388380        -0.011650       -0.009320       -0.021733       1.016244        
-8.860470       7.330900        -0.012160       -0.008750       -0.020013       1.016318        
-8.907960       7.273110        -0.012710       -0.008370       -0.017701       1.019129        
-8.955090       7.215010        -0.013800       -0.008020       -0.023212       1.019407        
-9.001820       7.156620        -0.013700       -0.007330       -0.017183       1.016595        
-9.048180       7.097920        -0.013860       -0.006540       -0.016018       1.019351        
-9.094159       7.038910        -0.015010       -0.005990       -0.016443       1.022311        
-9.139740       6.979620        -0.014680       -0.004660       -0.017238       1.022311        
-9.184950       6.920020        -0.015240       -0.004140       -0.015500       1.022403        
-9.229770       6.860130        -0.016300       -0.003340       -0.017331       1.019906        
-9.274179       6.799960        -0.016060       -0.001760       -0.015740       1.019888        
-9.318219       6.739490        -0.017170       -0.000550       -0.013077       1.017354        
-9.361859       6.678730        -0.017990       0.000800        -0.010117       1.020239        
-9.405109       6.617700        -0.018930       0.002860        -0.011874       1.020517        
-9.447940       6.556400        -0.020280       0.005260        -0.006437       1.018020        
-9.490390       6.494800        -0.021090       0.006500        -0.006418       1.018223        
0.055040        10.999860       -0.004930       0.013230        -0.000851       0.981952        
-0.016510       10.999990       -0.002950       0.015190        -0.000795       0.965602        
-0.088060       10.999649       -0.000520       0.017090        -0.001239       0.951989        
-0.159610       10.998839       0.002120        0.020670        -0.004199       0.933086        
-0.231130       10.997569       0.005180        0.023200        -0.002608       0.905786        
-0.302670       10.995830       0.008650        0.026550        0.000777        0.883998        
-0.374190       10.993629       0.013460        0.030380        -0.000851       0.843140        
-0.445670       10.990970       0.017120        0.034210        -0.002109       0.807794        
-0.517150       10.987840       0.024250        0.038590        -0.006215       0.758761        
-0.588620       10.984240       0.033980        0.044710        -0.007935       0.704439        
-0.660040       10.980180       0.041390        0.048350        -0.004957       0.680061        
-0.731450       10.975650       0.049930        0.050010        -0.009433       0.655683        
-0.802830       10.970659       0.060450        0.046610        -0.011486       0.655628        
-0.874170       10.965210       0.070060        0.038860        -0.009193       0.682854        
-0.945460       10.959290       0.074810        0.023720        -0.011375       0.753730        
-1.016730       10.952909       0.073760        0.011070        -0.009137       0.824570        
-1.087950       10.946059       0.068670        -0.000510       -0.006122       0.900773        
-1.159110       10.938760       0.060230        -0.009140       -0.005345       0.954745        
-1.230240       10.930989       0.052490        -0.017330       -0.000462       1.003371        
-1.301320       10.922750       0.045640        -0.020330       0.001258        1.021996        
-1.372340       10.914060       0.038950        -0.024050       0.005382        1.029672        
-1.443290       10.904900       0.034490        -0.024280       0.008212        1.029358        
-1.514190       10.895280       0.029790        -0.023830       0.011338        1.037311        
-1.585030       10.885200       0.025900        -0.022680       0.008434        1.037237        
-1.655810       10.874660       0.021800        -0.022340       0.006770        1.034463        
-1.726490       10.863669       0.018890        -0.021090       0.004458        1.031725        
-1.797120       10.852200       0.015710        -0.019710       0.007676        1.028932        
-1.867670       10.840289       0.012980        -0.019180       0.009156        1.028914        
-1.938130       10.827909       0.009320        -0.019840       0.008638        1.031707        
-2.008520       10.815069       0.007640        -0.019270       0.008693        1.034500        
-2.078830       10.801780       0.004290        -0.018940       0.011320        1.034537        
-2.149040       10.788030       0.002460        -0.018700       0.006141        1.034684        
-2.219150       10.773829       0.000500        -0.018160       0.008804        1.034740        
-2.289190       10.759159       -0.001790       -0.017900       0.007065        1.034851        
-2.359130       10.744049       -0.003450       -0.017560       0.004254        1.034980        
-2.428940       10.728479       -0.003620       -0.017630       0.003921        1.029524        
-2.498680       10.712449       -0.004840       -0.016990       0.007676        1.029543        
-2.568310       10.695970       -0.005760       -0.016400       0.008823        1.032336        
-2.637810       10.679040       -0.007290       -0.016040       0.008157        1.032446        
-2.707220       10.661659       -0.008660       -0.013570       -0.001424       1.032724        
-2.776510       10.643820       -0.010640       -0.012210       0.005068        1.032779        
-2.845680       10.625540       -0.011120       -0.011750       0.002811        1.035591        
-2.914730       10.606810       -0.012390       -0.012280       -0.000018       1.032964        
-2.983660       10.587620       -0.013050       -0.011600       0.002700        1.033001        
-3.052470       10.567989       -0.014750       -0.011370       0.002904        1.035868        
-3.121130       10.547919       -0.014980       -0.010660       0.005105        1.038624        
-3.189680       10.527390       -0.016510       -0.010550       0.001554        1.036053        
-3.258090       10.506419       -0.017590       -0.010320       -0.002275       1.036201        
-3.326350       10.485009       -0.016940       -0.009380       -0.002626       1.033464        
-3.394470       10.463149       -0.016470       -0.009980       0.003163        1.036072        
-3.462470       10.440849       -0.017430       -0.009670       0.001424        1.036183        
-3.530300       10.418110       -0.018990       -0.009530       0.000851        1.036331        
-3.597980       10.394930       -0.018930       -0.009660       0.000851        1.036331        
-3.665520       10.371300       -0.018340       -0.008610       0.003440        1.036294        
-3.732910       10.347239       -0.018260       -0.008820       0.000518        1.033593        
-3.800120       10.322749       -0.018130       -0.007200       0.000277        1.033649        
-3.867180       10.297810       -0.018220       -0.007430       0.000888        1.036386        
-3.934090       10.272429       -0.018300       -0.007660       -0.001239       1.036423        
-4.000820       10.246630       -0.018320       -0.006880       -0.000444       1.033704        
-4.067380       10.220389       -0.018500       -0.006130       0.001184        1.033741        
-4.133770       10.193720       -0.017950       -0.005150       0.000869        1.031022        
-4.199990       10.166610       -0.018510       -0.005470       0.001998        1.031041        
-4.266040       10.139079       -0.018010       -0.004390       0.004606        1.031022        
-4.331880       10.111119       -0.017610       -0.003520       0.002201        1.028322        
-4.397560       10.082729       -0.017720       -0.002650       0.005956        1.028322        
-4.463050       10.053909       -0.017480       -0.001890       0.004125        1.028377        
-4.528340       10.024679       -0.015950       -0.001190       0.005530        1.025529        
-4.593450       9.995009        -0.016170       -0.000520       0.004217        1.022865        
-4.658370       9.964919        -0.016330       0.000370        0.007990        1.022865        
-4.723090       9.934409        -0.015280       0.001530        0.003644        1.017428        
-4.787590       9.903480        -0.014060       0.003170        0.006714        1.014616        
-4.851910       9.872129        -0.014220       0.003980        0.007528        1.011934        
-4.916030       9.840360        -0.013210       0.005180        0.003218        1.006497        
-4.979910       9.808180        -0.011490       0.008150        0.008157        1.000966        
-5.043610       9.775579        -0.011540       0.009040        0.005456        0.992865        
-5.107090       9.742570        -0.009600       0.010490        0.009895        0.984505        
-5.170340       9.709149        -0.008280       0.013030        0.008305        0.979086        
-5.233390       9.675309        -0.007880       0.016360        0.007713        0.962846        
-5.296210       9.641069        -0.006110       0.019580        0.009156        0.951915        
-5.358800       9.606420        -0.005600       0.022050        0.007731        0.938357        
-5.421170       9.571360        -0.006750       0.029250        0.003348        0.911668        
-5.483310       9.535890        -0.005310       0.033870        0.006807        0.889935        
-5.545230       9.500019        -0.004750       0.039270        0.002552        0.849299        
-5.606890       9.463759        -0.002520       0.049430        0.000592        0.795272        
-5.668330       9.427090        0.003370        0.061030        -0.000185       0.730203        
-5.729530       9.390019        0.008600        0.068970        0.000943        0.686812        
-5.790480       9.352559        0.019290        0.079000        -0.002534       0.649283        
-5.851190       9.314699        0.030910        0.079450        -0.005752       0.649006        
-5.911660       9.276440        0.041390        0.073230        -0.003274       0.689290        
-5.971870       9.237789        0.050600        0.060760        -0.000573       0.770543        
-6.031820       9.198759        0.053300        0.049280        -0.003163       0.838368        
-6.091530       9.159329        0.054120        0.034470        -0.002571       0.905860        
-6.150980       9.119510        0.051930        0.021370        -0.002386       0.965324        
-6.210150       9.079320        0.049080        0.010480        -0.001498       1.003019        
-6.269080       9.038730        0.042480        0.003140        -0.000499       1.024308        
-6.327740       8.997760        0.037700        0.000400        0.007602        1.032095        
-6.386140       8.956409        0.033010        -0.001670       0.008212        1.034629        
-6.444250       8.914689        0.028620        -0.003500       0.010432        1.034463        
-6.502100       8.872580        0.025740        -0.004670       0.004421        1.031799        
-6.559680       8.830099        0.022260        -0.004890       0.007620        1.028988        
-6.616980       8.787239        0.018240        -0.006600       0.012559        1.034425        
-6.673980       8.744030        0.014880        -0.007330       0.005937        1.031855        
-6.730720       8.700430        0.012270        -0.008260       0.004550        1.029210        
-6.787170       8.656460        0.009770        -0.009090       0.005308        1.026546        
-6.843320       8.612140        0.006870        -0.009080       0.011578        1.034777        
-6.899190       8.567450        0.004020        -0.010650       0.006437        1.034999        
-6.954780       8.522389        0.002560        -0.010820       0.005142        1.032372        
-7.010060       8.476970        0.000550        -0.011310       0.007879        1.032446        
-7.065040       8.431199        -0.001060       -0.010770       0.005382        1.032576        
-7.119740       8.385070        -0.002200       -0.012070       0.000999        1.032724        
-7.174130       8.338579        -0.003960       -0.012090       0.010321        1.032687        
-7.228200       8.291750        -0.005230       -0.012660       0.002035        1.032909        
-7.281990       8.244550        -0.006570       -0.012800       0.002904        1.030264        
-7.335460       8.197009        -0.007050       -0.012330       0.002164        1.030319        
-7.388610       8.149130        -0.008530       -0.012570       0.003884        1.030412        
-7.441470       8.100900        -0.010270       -0.013290       0.004679        1.036016        
-7.494000       8.052320        -0.010820       -0.013000       0.001850        1.036109        
-7.546210       8.003420        -0.012630       -0.013620       0.003884        1.033501        
-7.598110       7.954170        -0.013230       -0.013280       0.003995        1.036294        
-7.649690       7.904570        -0.013830       -0.014240       0.001480        1.039105        
-7.700950       7.854640        -0.015240       -0.014880       -0.002035       1.036571        
-7.751860       7.804400        -0.016100       -0.014750       -0.002220       1.033926        
-7.802460       7.753810        -0.016420       -0.013830       0.000925        1.031189        
-7.852730       7.702890        -0.017420       -0.013800       0.004291        1.033982        
-7.902660       7.651660        -0.017460       -0.014230       0.002756        1.036756        
-7.952270       7.600100        -0.018840       -0.014710       0.001609        1.034167        
-8.001539       7.548210        -0.019890       -0.014870       0.002867        1.036996        
-8.050460       7.496000        -0.020240       -0.015430       0.004014        1.037033        
-8.099039       7.443490        -0.020340       -0.014610       0.005105        1.039752        
-8.147289       7.390650        -0.020180       -0.014810       0.002164        1.037071        
-8.195189       7.337490        -0.021010       -0.015960       0.002312        1.037163        
-8.242729       7.284050        -0.021160       -0.013950       0.003089        1.037181        
-8.289940       7.230270        -0.021450       -0.014360       0.003644        1.034463        
-8.336800       7.176190        -0.020870       -0.013900       0.004606        1.034407        
-8.383300       7.121820        -0.021380       -0.013610       0.003921        1.034481        
-8.429440       7.067150        -0.021930       -0.013480       0.001110        1.034592        
-8.475229       7.012170        -0.021380       -0.013010       0.002072        1.034518        
-8.520659       6.956890        -0.021880       -0.012100       0.008194        1.034500        
-8.565740       6.901310        -0.020950       -0.011570       0.003588        1.034481        
-8.610430       6.845470        -0.021500       -0.011060       0.005234        1.034518        
-8.654779       6.789310        -0.021600       -0.009930       0.007861        1.034500        
-8.698759       6.732870        -0.021130       -0.009610       0.006733        1.034463        
-8.742359       6.676160        -0.021250       -0.008480       0.009396        1.034463        
-8.785600       6.619150        -0.023110       -0.007390       0.010284        1.037385        
-8.828469       6.561860        -0.021840       -0.006380       0.004569        1.037348        
-8.870959       6.504310        -0.022370       -0.005970       0.003292        1.034703        
-8.913079       6.446470        -0.022120       -0.004220       0.006973        1.034629        
-8.954829       6.388360        -0.021430       -0.001620       0.011061        1.031781        
-8.996189       6.329970        -0.021610       -0.000740       0.008693        1.029099        
-9.037160       6.271340        -0.020530       0.000620        0.011024        1.034425        
-9.077769       6.212420        -0.020780       0.001310        0.009266        1.034500        
-0.025560       17.009979       -0.004920       -0.012960       0.010191        1.022810        
-0.136180       17.009449       -0.005330       -0.013590       0.012133        1.022699        
-0.246810       17.008209       -0.005450       -0.013030       0.014316        1.025973        
-0.357450       17.006239       -0.005890       -0.011880       0.013354        1.029376        
-0.468030       17.003559       -0.005440       -0.010900       0.014205        1.026343        
-0.578630       17.000149       -0.004590       -0.010310       0.014445        1.026454        
-0.689200       16.996029       -0.003240       -0.009990       0.006548        1.020276        
-0.799740       16.991190       -0.000050       -0.008360       0.010432        1.000855        
-0.910220       16.985628       0.007980        -0.011340       -0.001942       0.938838        
-1.020680       16.979349       0.015990        -0.011610       -0.001813       0.883369        
-1.131110       16.972349       0.024580        -0.013040       -0.009100       0.867962        
-1.241490       16.964628       0.024460        -0.011400       -0.001091       0.904362        
-1.351780       16.956200       0.020370        -0.003140       0.002183        0.948308        
-1.462050       16.947048       0.015150        0.014710        0.024156        0.997581        
-1.572260       16.937180       0.009890        0.023970        0.033015        1.022459        
-1.682370       16.926600       0.008170        0.026590        0.039433        1.026084        
-1.792440       16.915289       0.007400        0.028490        0.037251        1.026694        
-1.902430       16.903278       0.007660        0.028180        0.037380        1.023309        
-2.012310       16.890549       0.007430        0.029440        0.032516        1.023901        
-2.122140       16.877100       0.008310        0.029010        0.034347        1.023790        
-2.231870       16.862940       0.008120        0.028260        0.032886        1.023550        
-2.341510       16.848059       0.009010        0.026440        0.031924        1.023180        
-2.451030       16.832479       0.009580        0.024180        0.031425        1.025843        
-2.560470       16.816179       0.008960        0.023260        0.025487        1.025732        
-2.669800       16.799170       0.010510        0.022170        0.024877        1.025603        
-2.778990       16.781448       0.010380        0.020930        0.019051        1.022089        
-2.888090       16.763020       0.012440        0.019440        0.021474        1.021848        
-2.997070       16.743879       0.011960        0.018650        0.026209        1.024752        
-3.105920       16.724030       0.012560        0.017030        0.016628        1.024641        
-3.214610       16.703480       0.014360        0.015650        0.022325        1.024271        
-3.323200       16.682219       0.013320        0.014330        0.014926        1.027305        
-3.431650       16.660250       0.014020        0.012540        0.017238        1.026824        
-3.539910       16.637579       0.014730        0.012280        0.014205        1.023661        
-3.648070       16.614199       0.014090        0.010720        0.012263        1.023180        
-3.756060       16.590118       0.015560        0.010340        0.011042        1.023309        
-3.863890       16.565329       0.014410        0.010700        0.011893        1.026583        
-3.971530       16.539860       0.014600        0.010140        0.012614        1.026343        
-4.079040       16.513670       0.013440        0.010480        0.013595        1.029616        
-4.186370       16.486790       0.014110        0.008480        0.008249        1.029376        
-4.293500       16.459219       0.012860        0.008370        0.007398        1.025843        
-4.400470       16.430939       0.014340        0.008140        0.006196        1.025973        
-4.507260       16.401970       0.012840        0.007830        0.006067        1.025732        
-4.613820       16.372309       0.011740        0.006480        0.010080        1.021719        
-4.720230       16.341949       0.012930        0.005560        0.010561        1.021608        
-4.826430       16.310900       0.012060        0.005290        0.009340        1.021478        
-4.932400       16.279169       0.010200        0.003770        0.006307        1.024271        
-5.038190       16.246738       0.010630        0.004080        0.010802        1.024271        
-5.143760       16.213629       0.011020        0.002820        0.010080        1.023901        
-5.249120       16.179819       0.009600        0.000750        0.004846        1.023420        
-5.354220       16.145350       0.009690        0.000210        0.000610        1.020147        
-5.459130       16.110180       0.010670        0.000180        0.008138        1.020017        
-5.563820       16.074329       0.009930        -0.001910       0.004735        1.022810        
-5.668230       16.037809       0.009470        -0.003810       0.003644        1.025732        
-5.772430       16.000599       0.009500        -0.003750       0.003644        1.025732        
-5.876390       15.962709       0.008940        -0.005290       0.007398        1.025252        
-5.980100       15.924150       0.009810        -0.005770       0.004846        1.025252        
-6.083520       15.884919       0.009850        -0.005700       0.004846        1.025252        
-6.186730       15.845010       0.008330        -0.005500       0.006196        1.025122        
-6.289660       15.804440       0.007470        -0.006440       0.009230        1.024752        
-6.392330       15.763189       0.007090        -0.006680       0.004735        1.024752        
-6.494700       15.721290       0.006130        -0.006830       0.009100        1.024512        
-6.596830       15.678710       0.006510        -0.009900       0.006677        1.024031        
-6.698680       15.635460       0.005380        -0.011130       0.005216        1.023661        
-6.800220       15.591570       0.005450        -0.011100       0.005216        1.023661        
-6.901500       15.547000       0.005530        -0.012810       0.008619        1.026583        
-7.002480       15.501789       0.006430        -0.014820       0.006677        1.026343        
-7.103170       15.455910       0.004550        -0.016450       0.004014        1.025973        
-7.203520       15.409389       0.003250        -0.015310       0.011172        1.025973        
-7.303610       15.362200       0.004290        -0.019830       0.006067        1.025362        
-7.403390       15.314369       0.003740        -0.020020       0.007287        1.025252        
-7.502820       15.265900       0.004310        -0.022010       0.005697        1.021719        
-7.601960       15.216769       0.002970        -0.023500       0.007639        1.021367        
-7.700780       15.167000       0.001610        -0.024470       0.008138        1.024401        
-7.799250       15.116599       0.001150        -0.024780       0.009340        1.024401        
-7.897410       15.065550       -0.000060       -0.025380       0.009340        1.024271        
-7.995250       15.013860       -0.001980       -0.028070       0.008860        1.023901        
-8.092710       14.961550       -0.003610       -0.029980       0.006307        1.023661        
-8.189859       14.908589       -0.004810       -0.029740       0.010080        1.023550        
-8.286659       14.855009       -0.007060       -0.031360       0.007528        1.026694        
-8.383120       14.800790       -0.008160       -0.032150       0.007528        1.026583        
-8.479190       14.745959       -0.011650       -0.034790       0.005697        1.023051        
-8.574929       14.690490       -0.014230       -0.037200       0.008009        1.022810        
-8.670309       14.634399       -0.017380       -0.037440       0.008860        1.022940        
-8.765300       14.577709       -0.020360       -0.037040       0.005586        1.013340        
-8.859940       14.520379       -0.023290       -0.033130       0.007639        1.004000        
-8.954200       14.462449       -0.032860       -0.031340       0.004846        0.995140        
-9.048090       14.403890       -0.036080       -0.019530       0.006067        0.980824        
-9.141560       14.344749       -0.027530       0.002200        0.010802        0.944664        
-9.234679       14.284980       -0.021980       0.020860        0.024637        0.971965        
-9.327410       14.224609       -0.025390       0.024070        0.034347        1.012859        
-9.419709       14.163650       -0.025860       0.023460        0.032276        1.022699        
-9.511649       14.102079       -0.024420       0.026650        0.037380        1.026935        
-9.603169       14.039909       -0.024040       0.026750        0.036160        1.027064        
-9.694300       13.977139       -0.020130       0.026500        0.033367        1.030097        
-9.784989       13.913810       -0.017080       0.025090        0.028391        1.029616        
-9.875290       13.849859       -0.014650       0.024620        0.027799        1.025973        
-9.965170       13.785339       -0.012330       0.023480        0.028391        1.028766        
-10.054629      13.720220       -0.009260       0.020180        0.022454        1.031059        
-10.143629      13.654550       -0.008990       0.019420        0.020993        1.030948        
-10.232240      13.588269       -0.006760       0.020380        0.022935        1.031059        
-10.320419      13.521429       -0.005700       0.018610        0.020753        1.030578        
-10.408130      13.454029       -0.003980       0.017340        0.019791        1.030227        
-10.495430      13.386040       -0.003890       0.017220        0.014205        1.030338        
-10.582270      13.317490       -0.003650       0.016580        0.012744        1.030227        
-10.668659      13.248389       -0.001970       0.016580        0.014797        1.026824        
-10.754609      13.178710       -0.001200       0.015480        0.014075        1.026454        
-10.840110      13.108470       -0.000340       0.015100        0.014445        1.029616        
-10.925119      13.037709       0.000460        0.014800        0.011893        1.029616        
-11.009700      12.966359       0.000740        0.014210        0.010432        1.029487        
-11.093809      12.894469       0.001180        0.013750        0.011172        1.029247        
-11.177429      12.822060       0.001460        0.013940        0.007879        1.029376        
-11.260599      12.749069       0.001300        0.014020        0.004975        1.026213        
-11.343289      12.675560       0.001060        0.012550        0.008138        1.032280        
-11.425500      12.601500       0.002500        0.011920        0.006307        1.032169        
-11.507210      12.526939       0.001800        0.012320        0.005586        1.032280        
-11.588449      12.451819       0.002200        0.011670        0.004254        1.032169        
-11.669200      12.376180       0.002670        0.011250        0.004975        1.032039        
-11.749459      12.300010       0.002500        0.009920        0.005216        1.034943        
-11.829189      12.223350       0.002850        0.009370        0.003755        1.034832        
-11.908460      12.146139       0.003140        0.008890        -0.000481       1.031429        
-11.987220      12.068419       0.003850        0.007560        0.004975        1.034222        
-12.065439      11.990210       0.004650        0.008440        0.002904        1.034463        
-12.143180      11.911469       0.005640        0.009540        0.003033        1.034832        
-12.220400      11.832230       0.005950        0.008800        -0.000721       1.034703        
-12.297110      11.752489       0.006530        0.008780        -0.000481       1.031318        
-12.373280      11.672279       0.006670        0.009330        0.003884        1.031318        
-12.448939      11.591539       0.006410        0.008870        -0.000481       1.031318        
-12.524079      11.510309       0.006190        0.007840        0.004606        1.030819        
-12.598669      11.428630       0.005950        0.007380        0.003033        1.034093        
-12.672740      11.346430       0.006090        0.006580        0.004846        1.033741        
-12.746280      11.263760       0.006440        0.006000        0.003514        1.033612        
-12.819280      11.180610       0.006200        0.006880        0.001572        1.033982        
-12.891709      11.097010       0.006010        0.005990        0.003755        1.030338        
-12.963630      11.012919       0.005930        0.004750        0.001221        1.030097        
-13.034989      10.928360       0.006040        0.004020        0.003033        1.029857        
-13.105780      10.843360       0.006730        0.003980        0.006196        1.029616        
-13.176040      10.757879       0.006220        0.003260        0.004975        1.029487        
-13.245740      10.671949       0.006760        0.000660        0.002793        1.029006        
-13.314850      10.585589       0.006740        0.000850        -0.000129       1.025732        
-13.383430      10.498750       0.007220        -0.000120       0.005216        1.021959        
-13.451440      10.411469       0.005320        -0.002520       0.005105        1.021608        
-13.518860      10.323779       0.007260        -0.004090       0.008860        1.027674        
-13.585730      10.235620       0.007180        -0.005840       0.004735        1.030708        
-13.652020      10.147030       0.007860        -0.005770       0.004846        1.027434        
-13.717739      10.058009       0.007500        -0.007780       0.004014        1.030338        
-13.782860      9.968590        0.007150        -0.007940       0.004365        1.026935        
-13.847409      9.878730        0.007240        -0.007670       0.006788        1.026935        
-13.911380      9.788440        0.007650        -0.010930       0.003514        1.026454        
-13.974739      9.697769        0.008430        -0.010040       0.009710        1.029727        
-14.037530      9.606660        0.007970        -0.012170       0.003884        1.029487        
-14.099710      9.515149        0.009100        -0.012700       0.008138        1.025843        
-0.027800       18.500978       -0.006640       -0.022770       0.018089        1.018685        
-0.148110       18.500399       -0.006600       -0.021410       0.021233        1.022200        
-0.268450       18.499048       -0.008260       -0.021480       0.017109        1.022089        
-0.388780       18.496908       -0.006740       -0.020610       0.014205        1.018685        
-0.509050       18.493990       -0.005330       -0.019810       0.013595        1.018926        
-0.629350       18.490290       -0.004870       -0.017840       0.009230        1.004850        
-0.749610       18.485809       0.001000        -0.013930       -0.003403       0.948789        
-0.869840       18.480539       0.010140        -0.012800       -0.016387       0.875120        
-0.990000       18.474489       0.016450        -0.003680       -0.016387       0.844305        
-1.110150       18.467659       0.016300        0.009330        -0.005956       0.874028        
-1.230250       18.460049       0.009010        0.018580        0.010672        0.942112        
-1.350310       18.451649       0.001840        0.027350        0.025358        1.003278        
-1.470270       18.442478       0.001650        0.032470        0.039193        1.021848        
-1.590210       18.432529       0.002260        0.035770        0.036049        1.026343        
-1.710070       18.421799       0.004140        0.038990        0.040784        1.027194        
-1.829840       18.410290       0.004300        0.040970        0.035198        1.027915        
-1.949550       18.397989       0.006920        0.040290        0.037140        1.024512        
-2.069180       18.384918       0.007870        0.037660        0.036530        1.024031        
-2.188690       18.371078       0.008720        0.033610        0.033256        1.023420        
-2.308150       18.356449       0.010100        0.027310        0.029853        1.022459        
-2.427500       18.341049       0.010140        0.028010        0.030833        1.026213        
-2.546760       18.324869       0.010460        0.026630        0.027189        1.026213        
-2.665870       18.307919       0.010080        0.025360        0.024766        1.022329        
-2.784900       18.290190       0.010350        0.024580        0.025007        1.025843        
-2.903820       18.271688       0.010420        0.023160        0.024267        1.025603        
-3.022580       18.252419       0.009530        0.021590        0.020383        1.025362        
-3.141250       18.232368       0.009650        0.020170        0.019532        1.025122        
-3.259770       18.211559       0.009950        0.019500        0.019791        1.028636        
-3.378170       18.189968       0.008490        0.018500        0.018200        1.028285        
-3.496390       18.167608       0.009250        0.017200        0.016498        1.028285        
-3.614490       18.144489       0.011070        0.014180        0.016258        1.024512        
-3.732450       18.120588       0.010090        0.013140        0.016258        1.027785        
-3.850200       18.095928       0.009830        0.012560        0.015296        1.024031        
-3.967830       18.070509       0.009950        0.010310        0.015648        1.027305        
-4.085290       18.044319       0.009850        0.008730        0.010802        1.027194        
-4.202580       18.017359       0.010470        0.007620        0.014075        1.027064        
-4.319660       17.989649       0.010300        0.005190        0.010432        1.030338        
-4.436590       17.961168       0.010730        0.004650        0.008619        1.026824        
-4.553320       17.931929       0.011110        0.003480        0.005345        1.023180        
-4.669840       17.901939       0.012700        0.002530        0.009710        1.023180        
-4.786190       17.871189       0.010720        0.001050        0.009100        1.029857        
-4.902340       17.839680       0.009750        0.000850        0.008379        1.026084        
-5.018240       17.807419       0.012690        -0.001060       0.005697        1.022810        
-5.133970       17.774399       0.012510        -0.001030       0.013114        1.026213        
-5.249490       17.740629       0.012060        -0.001190       0.009100        1.026213        
-5.364740       17.706108       0.012450        -0.003400       0.004975        1.026084        
-5.479810       17.670839       0.011820        -0.002570       0.004735        1.022459        
-5.594630       17.634819       0.011700        -0.003380       0.006196        1.022329        
-5.709230       17.598059       0.012330        -0.006160       0.002793        1.022089        
-5.823540       17.560558       0.011990        -0.004620       0.010321        1.022089        
-5.937650       17.522308       0.011740        -0.004010       0.007398        1.025732        
-6.051510       17.483309       0.011560        -0.005480       0.003033        1.022089        
-6.165070       17.443588       0.011110        -0.006430       0.007398        1.021719        
-6.278410       17.403118       0.011410        -0.009450       0.009340        1.024993        
-6.391480       17.361910       0.010760        -0.008890       0.004735        1.024993        
-6.504280       17.319969       0.011540        -0.009300       0.009340        1.024993        
-6.616770       17.277300       0.010860        -0.011220       0.008379        1.024641        
-6.729020       17.233898       0.010870        -0.011810       0.007398        1.020998        
-6.840980       17.189758       0.010040        -0.012970       0.007879        1.020757        
-6.952650       17.144899       0.010290        -0.013590       0.006437        1.020757        
-7.063990       17.099329       0.009900        -0.017070       0.007768        1.020276        
-7.175080       17.053009       0.010950        -0.015640       0.014205        1.020387        
-7.285850       17.005980       0.010450        -0.016690       0.011652        1.020276        
-7.396290       16.958239       0.011710        -0.018520       0.013595        1.020147        
-7.506440       16.909769       0.010970        -0.019700       0.014075        1.020017        
-7.616270       16.860579       0.011220        -0.022100       0.010931        1.019777        
-7.725790       16.810678       0.011110        -0.023140       0.015056        1.023180        
-7.834940       16.760090       0.012050        -0.026890       0.011172        1.023051        
-7.943800       16.708769       0.012870        -0.028160       0.010432        1.023051        
-8.052329       16.656738       0.013550        -0.031170       0.010432        1.019296        
-8.160469       16.604019       0.013610        -0.032150       0.014445        1.022699        
-8.268310       16.550589       0.013950        -0.034570       0.011412        1.022699        
-8.375790       16.496460       0.013460        -0.034840       0.010321        1.022570        
-8.482889       16.441639       0.013710        -0.036540       0.008619        1.022570        
-8.589660       16.386108       0.013070        -0.035220       0.014205        1.022329        
-8.696070       16.329889       0.013610        -0.036780       0.012022        1.025973        
-8.802070       16.272999       0.014140        -0.039940       0.008009        1.022329        
-8.907740       16.215389       0.015820        -0.040780       0.008490        1.022459        
-9.013029       16.157108       0.016110        -0.043180       0.005826        1.018815        
-9.117940       16.098139       0.017580        -0.042750       -0.002183       1.001207        
-9.222429       16.038509       0.016030        -0.039650       -0.011523       0.954856        
-9.326559       15.978180       0.016990        -0.015160       -0.017960       0.860193        
-9.430300       15.917170       0.018800        0.003630        -0.014075       0.833615        
-9.533609       15.855510       0.013720        0.022070        0.000962        0.904121        
-9.636550       15.793159       0.004820        0.028060        0.011763        0.965657        
-9.739070       15.730140       -0.003840       0.031900        0.031314        1.015893        
-9.841189       15.666459       -0.008400       0.035990        0.033367        1.027434        
-9.942860       15.602130       -0.011180       0.040120        0.041745        1.031799        
-10.044140      15.537120       -0.013350       0.042620        0.035808        1.032650        
-10.145000      15.471459       -0.014170       0.043370        0.042115        1.032761        
-10.245390      15.405160       -0.013370       0.043280        0.043817        1.032650        
-10.345380      15.338189       -0.010840       0.040620        0.037010        1.032280        
-10.444929      15.270570       -0.008640       0.036420        0.033626        1.027674        
-10.544049      15.202299       -0.004460       0.029820        0.028280        1.026343        
-10.642679      15.133420       -0.004440       0.028100        0.026338        1.025973        
-10.740899      15.063860       -0.003480       0.023360        0.019902        1.025122        
-10.838659      14.993679       -0.002550       0.023380        0.021603        1.025122        
-10.935960      14.922859       -0.002950       0.022180        0.019051        1.024993        
-11.032769      14.851430       -0.001860       0.021340        0.022325        1.024752        
-11.129149      14.779349       -0.001480       0.018970        0.019051        1.024401        
-11.225050      14.706639       -0.001220       0.019120        0.016147        1.024512        
-11.320450      14.633329       -0.000980       0.017500        0.018810        1.027674        
-11.415400      14.559380       -0.000540       0.016780        0.012503        1.027785        
-11.509859      14.484819       -0.000650       0.016140        0.011523        1.024031        
-11.603809      14.409670       0.000100        0.016820        0.014556        1.024142        
-11.697289      14.333879       0.000360        0.016220        0.013225        1.024031        
-11.790290      14.257489       0.000500        0.015130        0.012374        1.027545        
-11.882750      14.180519       0.001850        0.014650        0.012614        1.027434        
-11.974750      14.102920       0.001420        0.012280        0.007639        1.027064        
-12.066230      14.024730       0.002040        0.012090        0.007768        1.023550        
-12.157180      13.945970       0.001800        0.010910        0.005345        1.023309        
-12.247640      13.866590       0.002720        0.012070        0.012374        1.023420        
-12.337569      13.786630       0.002070        0.013180        0.007879        1.027305        
-12.426999      13.706079       0.001940        0.012200        0.007398        1.027064        
-12.515860      13.624980       0.002280        0.010570        0.005586        1.026824        
-12.604230      13.543280       0.002800        0.011130        0.006677        1.026935        
-12.692050      13.461010       0.002760        0.009940        0.008619        1.030227        
-12.779349      13.378160       0.003320        0.009590        0.004365        1.030338        
-12.866070      13.294780       0.003260        0.009610        0.004365        1.030338        
-12.952279      13.210799       0.003900        0.009200        0.004975        1.030227        
-13.037950      13.126269       0.003980        0.008380        0.006548        1.030097        
-13.123030      13.041209       0.004920        0.007420        0.005826        1.029968        
-13.207580      12.955560       0.005090        0.006820        0.004735        1.026213        
-13.291570      12.869380       0.005210        0.005580        0.001942        1.029727        
-13.375010      12.782650       0.005400        0.004980        0.000962        1.026084        
-13.457850      12.695399       0.005940        0.004610        0.001572        1.025973        
-13.540150      12.607590       0.006700        0.004460        0.004125        1.025973        
-13.621869      12.519239       0.006780        0.003450        0.008138        1.029247        
-13.702999      12.430400       0.007340        0.001750        -0.000610       1.029117        
-13.783569      12.341000       0.007130        0.001580        0.002312        1.029006        
-13.863549      12.251080       0.007120        0.000420        -0.000129       1.028877        
-13.942949      12.160640       0.007760        -0.000630       0.004365        1.024993        
-14.021729      12.069719       0.008250        -0.001390       0.005586        1.028525        
-14.099950      11.978250       0.010000        -0.002680       0.005456        1.028396        
-14.177569      11.886279       0.010230        -0.003450       0.006918        1.028155        
-14.254560      11.793830       0.010600        -0.005480       0.005956        1.027915        
-14.330979      11.700850       0.011540        -0.005250       0.001221        1.024512        
-14.406779      11.607389       0.011820        -0.004870       0.005216        1.024512        
-14.481959      11.513459       0.012460        -0.008850       0.003403        1.023901        
-14.556549      11.419009       0.013700        -0.009690       0.002663        1.023790        
-14.630520      11.324080       0.014460        -0.010010       0.007768        1.027305        
-14.703850      11.228700       0.015260        -0.010100       0.005956        1.023790        
-14.776580      11.132810       0.015740        -0.013450       0.005105        1.026935        
-14.848680      11.036460       0.016830        -0.014340       0.004735        1.023180        
-14.920159      10.939639       0.017360        -0.017530       0.001461        1.022940        
-14.990979      10.842389       0.017510        -0.019910       0.008379        1.022459        
-15.061199      10.744639       0.017310        -0.021650       0.004846        1.022200        
-15.130770      10.646440       0.017950        -0.023600       0.004014        1.022089        
-15.199679      10.547819       0.017310        -0.024630       0.003884        1.021848        
-15.267980      10.448720       0.017260        -0.027650       0.004975        1.021478        
-15.335620      10.349190       0.015890        -0.031440       0.005345        1.020998        
-0.028560       19.004978       -0.014160       -0.030870       0.002663        1.023550        
-0.152150       19.004389       -0.015450       -0.032370       0.001813        1.023420        
-0.275760       19.002998       -0.019060       -0.031230       0.000370        1.023051        
-0.399370       19.000799       -0.021710       -0.028710       -0.001813       1.019536        
-0.522920       18.997799       -0.024440       -0.024730       -0.000851       1.019536        
-0.646490       18.993999       -0.028650       -0.022840       0.005456        1.019296        
-0.770030       18.989389       -0.034000       -0.020640       0.002663        1.019166        
-0.893530       18.983978       -0.033710       -0.015750       -0.002663       1.003149        
-1.016970       18.977770       -0.027970       -0.001550       -0.009340       0.949399        
-1.140390       18.970749       -0.013440       0.015170        -0.001221       0.907155        
-1.263770       18.962929       -0.003450       0.030590        0.015407        0.941742        
-1.387100       18.954309       -0.004890       0.039300        0.023175        1.010806        
-1.510320       18.944889       -0.003320       0.042720        0.028521        1.022200        
-1.633530       18.934660       0.000410        0.047460        0.031795        1.024882        
-1.756660       18.923639       0.002980        0.045720        0.027670        1.021608        
-1.879680       18.911810       0.005900        0.043650        0.031924        1.024752        
-2.002660       18.899189       0.006610        0.042890        0.031425        1.028026        
-2.125550       18.885759       0.007900        0.039680        0.029002        1.027305        
-2.248320       18.871538       0.008630        0.038240        0.024396        1.027064        
-2.371030       18.856508       0.009350        0.036200        0.029742        1.022940        
-2.493630       18.840689       0.010480        0.033520        0.026690        1.022459        
-2.616140       18.824070       0.010400        0.028960        0.022824        1.027674        
-2.738490       18.806660       0.010050        0.026680        0.018570        1.027064        
-2.860770       18.788448       0.010960        0.025590        0.019180        1.026824        
-2.982930       18.769449       0.010070        0.023220        0.015777        1.026084        
-3.104920       18.749649       0.010160        0.021200        0.013835        1.025492        
-3.226820       18.729059       0.010200        0.019060        0.011763        1.024993        
-3.348580       18.707668       0.009860        0.019190        0.012022        1.021608        
-3.470200       18.685490       0.009610        0.017190        0.015648        1.024142        
-3.591630       18.662529       0.007810        0.016520        0.010672        1.027194        
-3.712960       18.638769       0.008250        0.015360        0.009340        1.023550        
-3.834120       18.614229       0.008490        0.013750        0.003644        1.023420        
-3.955090       18.588900       0.009760        0.013170        0.008860        1.019906        
-4.075930       18.562778       0.007190        0.011050        0.007287        1.018926        
-4.196580       18.535870       0.007290        0.011240        0.012133        1.022200        
-4.317070       18.508179       0.007550        0.009410        0.004014        1.025362        
-4.437330       18.479719       0.010420        0.006670        -0.002183       1.018685        
-4.557450       18.450459       0.009000        0.007320        0.003755        1.018445        
-4.677360       18.420429       0.007330        0.006040        -0.000240       1.017964        
-4.797060       18.389620       0.009290        0.004750        0.002793        1.014561        
-4.916570       18.358028       0.009840        0.003410        0.001942        1.017724        
-5.035890       18.325659       0.009890        0.001320        0.002904        1.017224        
-5.154950       18.292519       0.009600        0.001300        0.000721        1.017224        
-5.273830       18.258598       0.010650        -0.001240       0.001702        1.016873        
-5.392490       18.223909       0.010140        -0.001540       0.000240        1.020017        
-5.510890       18.188459       0.010250        -0.003530       -0.001572       1.016392        
-5.629090       18.152229       0.011250        -0.003890       -0.001461       1.016392        
-5.747040       18.115229       0.010080        -0.003360       0.001461        1.016263        
-5.864760       18.077459       0.010290        -0.002600       -0.000240       1.016503        
-5.982190       18.038939       0.009800        -0.005130       -0.005456       1.016022        
-6.099400       17.999649       0.010850        -0.004930       0.004014        1.012619        
-6.216360       17.959589       0.009380        -0.006330       0.002793        1.015412        
-6.333020       17.918779       0.009500        -0.007090       0.004125        1.018685        
-6.449450       17.877209       0.010330        -0.008340       0.000610        1.018574        
-6.565590       17.834879       0.010740        -0.010380       -0.001091       1.014931        
-6.681470       17.791788       0.010550        -0.011050       0.000610        1.014801        
-6.797020       17.747969       0.011440        -0.012270       -0.000240       1.018075        
-6.912330       17.703379       0.011510        -0.012200       -0.002904       1.014801        
-7.027340       17.658039       0.012260        -0.011640       0.006067        1.018075        
-7.142050       17.611959       0.012000        -0.014180       0.003514        1.020998        
-7.256430       17.565140       0.012470        -0.013190       0.001221        1.017964        
-7.370540       17.517569       0.012910        -0.015240       0.002312        1.017594        
-7.484330       17.469250       0.012400        -0.017800       0.002793        1.020387        
-7.597770       17.420210       0.013650        -0.021810       -0.000721       1.016743        
-7.710930       17.370419       0.013960        -0.019900       0.006196        1.016873        
-7.823750       17.319899       0.013580        -0.021570       0.007287        1.016632        
-7.936250       17.268639       0.013560        -0.024750       0.008490        1.019425        
-8.048380       17.216660       0.014060        -0.028690       0.000370        1.022459        
-8.160210       17.163939       0.015350        -0.032070       -0.001813       1.019055        
-8.271680       17.110498       0.015000        -0.033570       0.007287        1.021959        
-8.382779       17.056349       0.016020        -0.033970       0.005105        1.022089        
-8.493549       17.001459       0.016100        -0.035610       0.003274        1.021959        
-8.603959       16.945848       0.015810        -0.038230       0.001091        1.021719        
-8.713980       16.889540       0.013670        -0.040040       0.001332        1.017835        
-8.823649       16.832499       0.013300        -0.041970       0.000481        1.017724        
-8.932960       16.774750       0.013260        -0.041940       0.006196        1.020868        
-9.041860       16.716299       0.012570        -0.042600       0.000481        1.024031        
-9.150399       16.657129       0.011900        -0.042240       -0.002183       1.020757        
-9.258559       16.597260       0.011180        -0.045920       0.000962        1.023550        
-9.366329       16.536678       0.010190        -0.046010       -0.005826       1.020276        
-9.473660       16.475420       0.007440        -0.039040       -0.008138       0.990775        
-9.580640       16.413448       0.009280        -0.015720       -0.008249       0.910798        
-9.687200       16.350779       0.008400        0.006200        -0.003644       0.874750        
-9.793320       16.287439       0.003210        0.017740        0.005697        0.927056        
-9.899070       16.223389       -0.005850       0.029530        0.017960        0.993568        
-10.004379      16.158659       -0.010850       0.036500        0.032775        1.022570        
-10.109280      16.093239       -0.011960       0.040260        0.030463        1.030948        
-10.213719      16.027159       -0.012010       0.044700        0.032276        1.029727        
-10.317760      15.960380       -0.011740       0.045220        0.033626        1.029968        
-10.421359      15.892929       -0.010490       0.043520        0.030574        1.029376        
-10.524489      15.824820       -0.008420       0.041900        0.032645        1.028636        
-10.627210      15.756029       -0.008690       0.041840        0.032645        1.028636        
-10.729469      15.686569       -0.008630       0.039350        0.029131        1.027674        
-10.831280      15.616440       -0.007000       0.036220        0.026338        1.026454        
-10.932610      15.545679       -0.004650       0.033710        0.024877        1.025603        
-11.033500      15.474230       -0.005220       0.031590        0.023786        1.024752        
-11.133920      15.402140       -0.003350       0.028860        0.025857        1.027064        
-11.233870      15.329379       -0.002450       0.025660        0.018089        1.026084        
-11.333320      15.256009       -0.002050       0.023200        0.014686        1.025362        
-11.432320      15.181959       -0.002200       0.023190        0.014686        1.025362        
-11.530840      15.107269       -0.001280       0.022100        0.011042        1.025122        
-11.628830      15.031969       -0.001330       0.020660        0.014205        1.024512        
-11.726370      14.956010       -0.000490       0.017470        0.009470        1.023550        
-11.823400      14.879419       -0.000080       0.015840        0.007287        1.026454        
-11.919920      14.802210       -0.001000       0.016210        0.009581        1.026454        
-12.015949      14.724360       -0.000920       0.015190        0.005956        1.026213        
-12.111480      14.645889       -0.001020       0.015180        0.008730        1.029487        
-12.206460      14.566819       -0.001010       0.013180        0.004606        1.029006        
-12.300960      14.487109       -0.000560       0.012840        0.002663        1.025603        
-12.394939      14.406790       0.000260        0.013480        0.000962        1.025843        
-12.488359      14.325879       -0.000580       0.015870        0.004365        1.026583        
-12.581289      14.244340       -0.000390       0.014930        0.000721        1.026343        
-12.673670      14.162200       -0.001090       0.014250        0.002183        1.029376        
-12.765530      14.079459       0.000170        0.014530        0.001221        1.029616        
-12.856819      13.996149       -0.000680       0.011660        -0.003274       1.028766        
-12.947590      13.912219       -0.000840       0.013360        -0.004365       1.029376        
-13.037809      13.827709       0.001200        0.010820        -0.001813       1.028525        
-13.127480      13.742610       0.001250        0.010110        -0.002904       1.024993        
-13.216570      13.656950       0.001180        0.010120        -0.002904       1.024993        
-13.305129      13.570689       0.001750        0.009770        -0.002183       1.024882        
-13.393120      13.483850       0.001470        0.008440        -0.002183       1.027785        
-13.480519      13.396469       0.001850        0.005760        -0.004606       1.027194        
-13.567380      13.308499       0.001730        0.006970        0.000962        1.027305        
-13.653660      13.219970       0.002350        0.005370        -0.003884       1.027064        
-13.739369      13.130870       0.003180        0.004700        -0.002072       1.023420        
-13.824459      13.041249       0.004610        0.003060        -0.004014       1.023051        
-13.909010      12.951039       0.003600        0.003060        -0.004014       1.023051        
-13.992960      12.860290       0.004610        0.002130        -0.004606       1.022810        
-14.076289      12.769019       0.004780        0.001320        -0.000240       1.025843        
-14.159050      12.677190       0.006130        -0.001470       -0.004846       1.025362        
-14.241210      12.584820       0.006070        -0.002570       -0.005105       1.021719        
-14.322780      12.491920       0.006140        -0.002320       -0.003033       1.021719        
-14.403709      12.398520       0.006150        -0.002280       -0.003033       1.021719        
-14.484050      12.304560       0.007710        -0.003670       -0.004975       1.021478        
-14.563789      12.210079       0.008360        -0.002710       -0.001572       1.021608        
-14.642879      12.115109       0.009720        -0.003390       -0.007768       1.018334        
-14.721379      12.019609       0.010990        -0.003690       0.001332        1.024752        
-14.799250      11.923599       0.012600        -0.006440       -0.003274       1.024271        
-14.876470      11.827109       0.013250        -0.007990       -0.005105       1.023901        
-14.953090      11.730089       0.014570        -0.009540       -0.004014       1.023661        
-15.029079      11.632569       0.015560        -0.010540       -0.001702       1.023420        
-15.104409      11.534590       0.016680        -0.013500       -0.000240       1.022810        
-15.179119      11.436090       0.017640        -0.016060       -0.002423       1.022459        
-15.253189      11.337119       0.018690        -0.017020       -0.005105       1.022329        
-15.326610      11.237650       0.019570        -0.018210       -0.004846       1.022200        
-15.399369      11.137750       0.022630        -0.022550       -0.005216       1.021719        
-15.471490      11.037339       0.022800        -0.023400       -0.003274       1.018205        
-15.542959      10.936469       0.024890        -0.025350       -0.006067       1.014801        
-15.613750      10.835159       0.024980        -0.027940       -0.008249       1.014450        
-15.683900      10.733370       0.024370        -0.028930       -0.011283       1.010917        
-15.753389      10.631120       0.024290        -0.031850       -0.013225       1.007273        
-0.030040       19.991980       -0.010370       -0.054430       -0.077794       0.951822        
-0.160050       19.991360       -0.014530       -0.052330       -0.093090       0.876100        
-0.290080       19.989889       -0.006860       -0.034010       -0.092480       0.803891        
-0.420110       19.987579       0.016070        -0.000670       -0.080217       0.782769        
-0.550080       19.984428       0.034360        0.029250        -0.064440       0.841383        
-0.680070       19.980429       0.047010        0.046220        -0.047202       0.947087        
-0.810020       19.975578       0.045590        0.051680        -0.030574       1.014801        
-0.939940       19.969889       0.038520        0.050460        -0.025007       1.035443        
-1.069780       19.963348       0.033120        0.048130        -0.020993       1.034943        
-1.199620       19.955969       0.027400        0.046620        -0.018089       1.035313        
-1.329400       19.947748       0.021560        0.044120        -0.013114       1.034943        
-1.459130       19.938679       0.017300        0.042470        -0.006788       1.033501        
-1.588760       19.928768       0.013240        0.038460        -0.008009       1.037145        
-1.718360       19.918009       0.011520        0.035710        -0.015777       1.034703        
-1.847890       19.906408       0.010160        0.032870        -0.011893       1.034592        
-1.977300       19.893969       0.006900        0.030120        -0.011283       1.030708        
-2.106670       19.880690       0.006200        0.028300        -0.007287       1.035073        
-2.235940       19.866570       0.004310        0.025630        -0.011523       1.035554        
-2.365080       19.851608       0.003090        0.023520        -0.012503       1.033612        
-2.494170       19.835798       0.002700        0.021390        -0.014075       1.035202        
-2.623130       19.819159       0.002590        0.018890        -0.021363       1.033982        
-2.752000       19.801680       0.000740        0.016850        -0.027060       1.032169        
-2.880710       19.783360       0.000250        0.016700        -0.029131       1.031910        
-3.009340       19.764198       0.001320        0.014250        -0.037991       1.031429        
-3.137840       19.744209       -0.000140       0.013330        -0.037251       1.033131        
-3.266170       19.723389       0.000130        0.011770        -0.041024       1.032650        
-3.394400       19.701729       -0.001380       0.009490        -0.044168       1.027674        
-3.522480       19.679230       -0.001950       0.008890        -0.042115       1.029857        
-3.650420       19.655899       -0.001920       0.006750        -0.044538       1.028877        
-3.778160       19.631748       -0.001980       0.006330        -0.044057       1.025492        
-3.905790       19.606749       -0.002530       0.006320        -0.040414       1.028155        
-4.033240       19.580929       -0.003170       0.004750        -0.042837       1.027064        
-4.160490       19.554289       -0.005200       0.004510        -0.045149       1.029247        
-4.287600       19.526810       -0.005300       0.002920        -0.051215       1.025603        
-4.414520       19.498508       -0.007130       0.003190        -0.049514       1.024882        
-4.541270       19.469379       -0.007380       0.002790        -0.042467       1.030338        
-4.667780       19.439440       -0.008650       0.001100        -0.052307       1.026343        
-4.794130       19.408659       -0.005700       0.000330        -0.049643       1.023901        
-4.920270       19.377069       -0.009210       -0.000490       -0.051826       1.028285        
-5.046190       19.344660       -0.003190       -0.001050       -0.053879       1.018334        
-5.171910       19.311430       -0.005440       -0.001160       -0.053527       1.020387        
-5.297420       19.277380       -0.009200       -0.001810       -0.049995       1.027545        
-5.422660       19.242519       -0.008420       -0.003110       -0.054619       1.024271        
-5.547720       19.206839       -0.002110       -0.001870       -0.054249       1.012249        
-5.672550       19.170349       -0.001750       -0.003760       -0.054008       1.014320        
-5.797090       19.133049       -0.002150       -0.004110       -0.052307       1.020017        
-5.921430       19.094938       -0.002480       -0.004650       -0.054859       1.010566        
-6.045500       19.056019       -0.001240       -0.006170       -0.058503       1.016392        
-6.169330       19.016289       -0.001970       -0.007380       -0.056061       1.012249        
-6.292860       18.975769       -0.002740       -0.008080       -0.055710       1.020627        
-6.416170       18.934429       -0.001710       -0.008190       -0.053768       1.020868        
-6.539200       18.892288       -0.003040       -0.008790       -0.058984       1.026343        
-6.661920       18.849369       -0.002270       -0.008130       -0.055580       1.023790        
-6.784390       18.805639       -0.001280       -0.007490       -0.052177       1.024401        
-6.906570       18.761108       0.000430        -0.008270       -0.052436       1.024512        
-7.028460       18.715790       0.002110        -0.008620       -0.056061       1.024993        
-7.150020       18.669689       0.003690        -0.008660       -0.057763       1.022570        
-7.271310       18.622780       0.004570        -0.008530       -0.050124       1.025603        
-7.392290       18.575089       0.005430        -0.011090       -0.054859       1.021608        
-7.512970       18.526609       0.008930        -0.011500       -0.054619       1.019536        
-7.633280       18.477360       0.009820        -0.013160       -0.052177       1.021848        
-7.753320       18.427319       0.011990        -0.013410       -0.054008       1.016392        
-7.873020       18.376490       0.013270        -0.015100       -0.054119       1.018926        
-7.992350       18.324909       0.015160        -0.016630       -0.053398       1.012508        
-8.111389       18.272530       0.016050        -0.018050       -0.051826       1.008864        
-8.230069       18.219379       0.017690        -0.019120       -0.051696       1.002797        
-8.348410       18.165459       0.017720        -0.021910       -0.050735       0.988962        
-8.466359       18.110788       0.017820        -0.025020       -0.049643       0.996361        
-8.584000       18.055328       0.017310        -0.027440       -0.051585       1.007162        
-8.701260       17.999109       0.016140        -0.030750       -0.049514       0.989813        
-8.818130       17.942148       0.015520        -0.033050       -0.052307       0.994659        
-8.934649       17.884409       0.014210        -0.033490       -0.050365       0.993938        
-9.050790       17.825909       0.015970        -0.035530       -0.050975       0.990405        
-9.166530       17.766668       0.018500        -0.040540       -0.051937       0.992236        
-9.281899       17.706669       0.021390        -0.046720       -0.062387       0.969911        
-9.396879       17.645920       0.017630        -0.052370       -0.069896       0.925003        
-9.511430       17.584438       0.017420        -0.044930       -0.080828       0.831303        
-9.625620       17.522200       0.019920        -0.018500       -0.079607       0.775852        
-9.739389       17.459219       0.026050        0.016010        -0.064570       0.779495        
-9.852750       17.395489       0.026620        0.036900        -0.044538       0.860674        
-9.965670       17.331049       0.021790        0.047470        -0.022565       0.957649        
-10.078190      17.265860       0.014050        0.047440        -0.008490       1.016022        
-10.190289      17.199940       0.007940        0.042810        -0.004846       1.033852        
-10.301929      17.133308       0.006270        0.037020        -0.008619       1.031059        
-10.413159      17.065929       0.002250        0.033460        -0.006788       1.035794        
-10.523950      16.997839       -0.000170       0.031520        -0.001091       1.039327        
-10.634299      16.929020       -0.001940       0.028180        -0.001813       1.036035        
-10.744160      16.859509       -0.002600       0.025010        -0.006196       1.036405        
-10.853600      16.789259       -0.004790       0.022970        -0.012263       1.034592        
-10.962580      16.718300       -0.002740       0.020680        -0.006067       1.032890        
-11.071070      16.646660       -0.004400       0.018440        -0.005826       1.036775        
-11.179119      16.574289       -0.004900       0.017190        -0.005697       1.038828        
-11.286690      16.501228       -0.005230       0.014820        -0.012133       1.037255        
-11.393789      16.427460       -0.005970       0.013610        -0.012263       1.036164        
-11.500380      16.353020       -0.006360       0.012260        -0.015056       1.035313        
-11.606509      16.277859       -0.005470       0.011200        -0.033256       1.032520        
-11.712139      16.202019       -0.004780       0.010110        -0.031314       1.034832        
-11.817289      16.125488       -0.004770       0.007780        -0.037750       1.036534        
-11.921900      16.048309       -0.004960       0.006760        -0.041376       1.032761        
-12.026050      15.970420       -0.005580       0.004170        -0.044298       1.034093        
-12.129680      15.891850       -0.005590       0.004770        -0.045519       1.034592        
-12.232759      15.812639       -0.006360       0.004550        -0.041986       1.034093        
-12.335369      15.732730       -0.007240       0.003970        -0.045870       1.036885        
-12.437440      15.652160       -0.007550       0.002030        -0.047461       1.035554        
-12.538970      15.570939       -0.008060       0.000680        -0.047572       1.034592        
-12.639979      15.489050       -0.008520       0.001030        -0.048053       1.034832        
-12.740470      15.406500       -0.008750       0.003130        -0.049884       1.033371        
-12.840389      15.323330       -0.009780       0.002880        -0.048903       1.036164        
-12.939790      15.239479       -0.009420       0.001440        -0.052066       1.032280        
-13.038650      15.154980       -0.008690       0.002670        -0.046610       1.033001        
-13.136930      15.069870       -0.009870       0.001200        -0.053768       1.038347        
-13.234679      14.984099       -0.009220       0.001450        -0.049144       1.038347        
-13.331860      14.897699       -0.009350       -0.000730       -0.053638       1.034093        
-13.428490      14.810659       -0.009830       -0.002040       -0.053638       1.033131        
-13.524520      14.723020       -0.009000       -0.002990       -0.051826       1.035554        
-13.620000      14.634729       -0.006170       -0.003570       -0.054730       1.029376        
-13.714910      14.545830       -0.006940       -0.004220       -0.058743       1.032169        
-13.809239      14.456309       -0.008290       -0.005440       -0.055710       1.034222        
-13.902949      14.366199       -0.008250       -0.005490       -0.055710       1.034222        
-13.996110      14.275459       -0.008220       -0.005550       -0.055710       1.034222        
-14.088679      14.184110       -0.007260       -0.006520       -0.056672       1.033612        
-14.180619      14.092199       -0.007220       -0.006570       -0.056672       1.033612        
-14.271990      13.999660       -0.006030       -0.008590       -0.061277       1.032650        
-14.362740      13.906529       -0.005850       -0.007350       -0.058373       1.033371        
-14.452900      13.812799       -0.005080       -0.007940       -0.054489       1.032761        
-14.542419      13.718530       -0.006340       -0.009210       -0.056912       1.038106        
-14.631350      13.623639       -0.005330       -0.007950       -0.057042       1.035924        
-14.719660      13.528170       -0.003880       -0.009270       -0.057523       1.035202        
-14.807320      13.432170       -0.001890       -0.009830       -0.059465       1.031910        
-14.894389      13.335560       -0.002610       -0.008330       -0.054360       1.032650        
-14.980809      13.238400       -0.001830       -0.009790       -0.056561       1.034832        
-15.066609      13.140670       -0.001420       -0.008640       -0.054008       1.029487        
-15.151739      13.042419       -0.001010       -0.009620       -0.057652       1.029006        
-15.236270      12.943580       0.000780        -0.009910       -0.054730       1.025732        
-15.320140      12.844190       0.001190        -0.010590       -0.052547       1.031189        
-15.403339      12.744300       0.003870        -0.011960       -0.058133       1.030578        
-15.485920      12.643829       0.004100        -0.011280       -0.053879       1.030819        
-15.567829      12.542830       0.005500        -0.011040       -0.055211       1.021959        
-15.649059      12.441330       0.007950        -0.008810       -0.052436       1.011047        
-15.729659      12.339270       0.009720        -0.009980       -0.054008       0.998303        
-15.809600      12.236690       0.011550        -0.011400       -0.057763       0.985430        
-15.888840      12.133619       0.012820        -0.013380       -0.064570       0.963345        
-15.967429      12.030009       0.013450        -0.014580       -0.054489       0.934825        
-16.045340      11.925890       0.013570        -0.016630       -0.064200       0.888714        
-16.122580      11.821270       0.014890        -0.019790       -0.067603       0.856920        
-16.199108      11.716180       0.016360        -0.021770       -0.075112       0.789927        
-16.274979      11.610550       0.020190        -0.025270       -0.082159       0.749513        
-16.350159      11.504439       0.024380        -0.026880       -0.087856       0.704013        
-16.424629      11.397869       0.026860        -0.032700       -0.095754       0.675252        
-16.498419      11.290790       0.028260        -0.039640       -0.104484       0.667354        
-16.571520      11.183240       0.021870        -0.043410       -0.105094       0.663229        
-0.018790       12.499990       0.001590        0.026690        0.021770        1.024678        
-0.100090       12.499599       0.001600        0.028020        0.026838        1.021090        
-0.181380       12.498679       0.000340        0.029960        0.027208        1.028840        
-0.262670       12.497239       -0.000650       0.032150        0.027652        1.033778        
-0.343960       12.495270       -0.002170       0.033930        0.028021        1.031522        
-0.425210       12.492769       -0.002140       0.035470        0.026135        1.020313        
-0.506460       12.489730       -0.005810       0.037150        0.023564        1.031041        
-0.587700       12.486179       -0.007070       0.038820        0.027984        1.032039        
-0.668910       12.482090       -0.009740       0.040660        0.029076        1.034962        
-0.750060       12.477480       -0.012300       0.040320        0.028539        1.030227        
-0.831210       12.472329       -0.016070       0.041220        0.028373        1.039179        
-0.912320       12.466660       -0.019950       0.042150        0.025524        1.031485        
-0.993380       12.460460       -0.025730       0.044600        0.017331        1.023309        
-1.074410       12.453739       -0.033780       0.046780        0.018348        1.024012        
-1.155390       12.446489       -0.041040       0.045070        0.009673        1.001299        
-1.236310       12.438709       -0.042700       0.038400        -0.009840       0.941428        
-1.317190       12.430409       -0.039580       0.024730        -0.017331       0.890730        
-1.398020       12.421570       -0.030420       0.002650        -0.032109       0.862154        
-1.478770       12.412219       -0.019840       -0.036430       -0.057911       0.864521        
-1.559480       12.402340       -0.004250       -0.070090       -0.066234       0.890619        
-1.640120       12.391930       0.005930        -0.082800       -0.060574       0.918141        
-1.720700       12.381000       0.012120        -0.082080       -0.039470       0.976681        
-1.801170       12.369550       0.010750        -0.077100       -0.022898       1.011601        
-1.881600       12.357570       0.008830        -0.067760       -0.017479       1.023088        
-1.961940       12.345070       0.008760        -0.059530       -0.005086       1.030171        
-2.042180       12.332049       0.009570        -0.055220       -0.010099       1.020036        
-2.122350       12.318509       0.010040        -0.050320       -0.007713       1.023162        
-2.202440       12.304440       0.010350        -0.045440       -0.015888       1.015153        
-2.282420       12.289849       0.011110        -0.041720       -0.006622       1.026472        
-2.362300       12.274750       0.011540        -0.038270       -0.008915       1.019370        
-2.442090       12.259130       0.011750        -0.035590       -0.010080       1.021959        
-2.521790       12.242979       0.013070        -0.032310       -0.009988       1.014764        
-2.601350       12.226319       0.013370        -0.030170       -0.006936       1.020702        
-2.680820       12.209140       0.013830        -0.027600       -0.005179       1.023254        
-2.760190       12.191449       0.014360        -0.025690       -0.006289       1.017206        
-2.839430       12.173229       0.013910        -0.024460       -0.003015       1.028044        
-2.918540       12.154510       0.014480        -0.021790       -0.004975       1.021737        
-2.997530       12.135269       0.014190        -0.019950       0.000333        1.025880        
-3.076410       12.115510       0.014750        -0.018200       -0.007842       1.021552        
-3.155160       12.095249       0.014520        -0.015910       0.000906        1.025991        
-3.233740       12.074470       0.013610        -0.014290       0.004735        1.021756        
-3.312220       12.053180       0.013890        -0.011690       0.007028        1.028007        
-3.390550       12.031380       0.015080        -0.010220       0.007306        1.016225        
-3.468720       12.009080       0.014120        -0.009850       0.005660        1.019314        
-3.546760       11.986259       0.014060        -0.007680       0.007158        1.018741        
-3.624660       11.962939       0.014370        -0.006240       0.015851        1.023975        
-3.702370       11.939110       0.013760        -0.004810       0.017997        1.028710        
-3.779960       11.914780       0.012800        -0.003840       0.017090        1.028100        
-3.857380       11.889939       0.012690        -0.002750       0.010968        1.016096        
-3.934620       11.864599       0.012900        -0.001520       0.016887        1.021663        
-4.011710       11.838759       0.012200        -0.000890       0.018921        1.028026        
-4.088640       11.812409       0.011370        0.000640        0.013077        1.025122        
-4.165360       11.785569       0.011690        0.001010        0.018866        1.026546        
-4.241940       11.758229       0.011190        0.002980        0.014482        1.018981        
-4.318340       11.730379       0.009800        0.003000        0.024822        1.035924        
-4.394550       11.702049       0.010310        0.004430        0.015037        1.019462        
-4.470560       11.673220       0.009410        0.005250        0.017923        1.025862        
-4.546390       11.643900       0.008490        0.005780        0.022325        1.030116        
-4.622040       11.614079       0.008470        0.006980        0.018866        1.022496        
-4.697490       11.583759       0.008930        0.007760        0.014686        1.013451        
-4.772720       11.552970       0.007690        0.009130        0.015574        1.018075        
-4.847770       11.521680       0.007080        0.009460        0.019014        1.022514        
-4.922610       11.489900       0.006230        0.010090        0.020605        1.026620        
-4.997230       11.457649       0.005920        0.011350        0.032923        1.032631        
-5.071650       11.424899       0.004670        0.012640        0.024637        1.026158        
-5.145860       11.391669       0.004230        0.012320        0.031480        1.035165        
-5.219850       11.357960       0.002910        0.013750        0.021104        1.027194        
-5.293600       11.323770       0.002690        0.014430        0.027319        1.025011        
-5.367140       11.289100       0.001280        0.014860        0.028299        1.033704        
-5.440470       11.253949       0.000040        0.014850        0.032183        1.036719        
-5.513530       11.218329       -0.000620       0.016180        0.036622        1.036756        
-5.586390       11.182230       -0.002490       0.016950        0.037621        1.041010        
-5.659010       11.145650       -0.003360       0.017550        0.030907        1.032058        
-5.731390       11.108609       -0.005030       0.018870        0.022584        1.022681        
-5.803510       11.071099       -0.006840       0.018980        0.030019        1.027268        
-5.875400       11.033110       -0.008230       0.020190        0.033829        1.028488        
-5.947050       10.994659       -0.010950       0.021280        0.035087        1.034481        
-6.018420       10.955759       -0.013550       0.021610        0.031906        1.034906        
-6.089560       10.916380       -0.014190       0.021920        0.033182        1.027416        
-6.160440       10.876530       -0.017820       0.023190        0.034366        1.033242        
-6.231040       10.836240       -0.021300       0.024170        0.033774        1.038809        
-6.301400       10.795480       -0.023530       0.024940        0.034976        1.033297        
-6.371480       10.754259       -0.025720       0.024850        0.040358        1.035794        
-6.441290       10.712600       -0.029200       0.025310        0.033311        1.030911        
-6.510830       10.670480       -0.031740       0.024010        0.027060        1.019851        
-6.580100       10.627899       -0.035840       0.023210        0.032849        1.026417        
-6.649090       10.584869       -0.040840       0.021500        0.036400        1.034259        
-6.717790       10.541409       -0.047950       0.020080        0.030814        1.031263        
-6.786210       10.497490       -0.056650       0.017810        0.033792        1.034185        
-6.854360       10.453119       -0.062720       0.011360        0.020605        1.013303        
-6.922190       10.408330       -0.062670       0.002710        -0.001905       0.955855        
-6.989750       10.363079       -0.055360       -0.002610       -0.005937       0.902068        
-7.057010       10.317389       -0.040680       -0.017570       -0.030740       0.855107        
-7.123970       10.271270       -0.014370       -0.039540       -0.045556       0.844398        
-7.190620       10.224719       0.014410        -0.057700       -0.060408       0.856235        
-7.256970       10.177739       0.037590        -0.064930       -0.054230       0.897315        
-7.323030       10.130309       0.044520        -0.062590       -0.032331       0.946440        
-7.388770       10.082459       0.039010        -0.059660       -0.018958       1.013969        
-7.454180       10.034200       0.031750        -0.052120       -0.003237       1.025621        
-7.519290       9.985499        0.027820        -0.044850       0.002645        1.026731        
-7.584080       9.936379        0.027010        -0.038150       0.000518        1.020553        
-7.648540       9.886849        0.024830        -0.031710       0.001831        1.023124        
-7.712690       9.836889        0.023180        -0.028670       0.000758        1.025177        
-7.776520       9.786510        0.022600        -0.025660       0.002164        1.022958        
-7.840010       9.735720        0.021540        -0.022930       -0.005697       1.027490        
-7.903160       9.684529        0.021160        -0.020440       -0.006085       1.016170        
-7.965980       9.632919        0.021580        -0.018540       -0.004458       1.018907        
-8.028469       9.580899        0.019760        -0.016760       0.002035        1.032539        
-8.090610       9.528489        0.020200        -0.014020       0.003866        1.029672        
-8.152419       9.475650        0.018700        -0.013140       -0.005419       1.026398        
-8.213889       9.422420        0.019020        -0.011290       -0.003255       1.023568        
-8.274989       9.368810        0.017670        -0.008770       -0.002589       1.025437        
-8.335750       9.314779        0.017150        -0.007990       0.008360        1.039346        
-8.396170       9.260369        0.016650        -0.007170       -0.003089       1.023162        
-8.456229       9.205549        0.015450        -0.005490       0.002478        1.032039        
-8.515909       9.150370        0.015400        -0.004050       0.007121        1.031244        
-8.575250       9.094780        0.014470        -0.003820       0.002312        1.028932        
-8.634230       9.038810        0.013510        -0.002790       0.001313        1.029154        
-8.692829       8.982470        0.013310        -0.002570       0.005308        1.028895        
-8.751080       8.925730        0.012350        -0.001420       0.000647        1.028248        
-8.808949       8.868620        0.011830        -0.000200       0.003995        1.020313        
-8.866440       8.811139        0.011220        0.000690        -0.001202       1.022459        
-8.923559       8.753289        0.010140        0.001300        0.000777        1.022033        
-8.980309       8.695049        0.009350        0.001550        0.003200        1.025307        
-9.036679       8.636450        0.008810        0.002390        0.003644        1.025806        
-9.092649       8.577510        0.007390        0.002500        -0.002737       1.027785        
-9.148250       8.518180        0.007210        0.003570        0.001498        1.023864        
-9.203469       8.458489        0.006880        0.003660        0.004790        1.034167        
-9.258280       8.398459        0.005320        0.004800        0.000074        1.026287        
-9.312719       8.338059        0.005460        0.005290        0.004365        1.029117        
-9.366759       8.277309        0.004390        0.006550        0.007435        1.028359        
-9.420400       8.216209        0.003970        0.006510        0.005086        1.029302        
-9.473630       8.154770        0.002800        0.006640        -0.000610       1.029783        
-9.526480       8.092970        0.002610        0.008090        0.007195        1.027804        
-9.578919       8.030829        0.000550        0.008360        0.007750        1.034370        
-9.630939       7.968370        0.000760        0.009650        0.013151        1.034333        
-9.682570       7.905560        -0.001150       0.010280        0.012411        1.035757        
-9.733789       7.842400        -0.002030       0.011260        0.017201        1.028525        
-9.784599       7.778920        -0.003190       0.011640        0.016554        1.028877        
-9.834979       7.715130        -0.003280       0.013640        0.022787        1.032983        
-9.884950       7.650990        -0.004740       0.013480        0.024156        1.036978        
-9.934509       7.586530        -0.005170       0.014730        0.026819        1.031059        
-9.983640       7.521760        -0.006470       0.015320        0.035697        1.045819        
-10.032359      7.456660        -0.007920       0.015470        0.030444        1.040381        
-10.080649      7.391240        -0.008160       0.017300        0.017756        1.023994        
-10.128510      7.325520        -0.009390       0.017540        0.028095        1.032964        
-10.175940      7.259490        -0.009980       0.017760        0.027966        1.030264        
-10.222939      7.193150        -0.011350       0.018350        0.026745        1.028747        
-10.269520      7.126500        -0.012980       0.017290        0.031739        1.037255        
-10.315639      7.059570        -0.013860       0.017730        0.036844        1.035794        
-10.361349      6.992310        -0.015280       0.017930        0.029242        1.028766        
